wavelength	flux
1.57	0.011034324
1.82	0.019722778
2.0700002	0.01538531
2.3200002	0.025650121
2.5700002	0.0039244923
2.8200002	0.014895489
3.0700002	0.013700427
3.3200002	0.029755287
3.5700002	0.019997822
3.8200002	0.021760065
4.07	0.03963964
4.32	0.02946798
4.57	0.021404643
4.82	0.03291667
5.07	0.036491446
5.32	0.028978381
5.57	0.046905354
5.82	0.03284433
6.07	0.04358403
6.32	0.043247934
6.5699997	0.026768772
6.8199997	0.025017744
7.0699997	0.039513003
7.3199997	0.035618514
7.5699997	0.033524275
7.8199997	0.021151278
8.07	0.023714816
8.32	0.039063934
8.57	0.020468488
8.82	0.02626878
9.07	0.02243748
9.32	0.021922275
9.57	0.024813112
9.82	0.022069678
10.07	0.046934374
10.32	0.059593104
10.57	0.03807041
10.82	0.02927639
11.07	0.027812429
11.32	0.028645713
11.57	0.029206652
11.82	0.02358419
12.07	0.019786416
12.32	0.02710057
12.57	0.016830292
12.82	0.012010279
13.07	0.023569338
13.32	0.017466884
13.57	0.023669466
13.82	0.01770968
14.07	0.027330693
14.32	0.02671561
14.57	0.02990027
14.82	0.09068615
15.07	0.037970163
15.32	0.059460647
15.57	0.02179606
15.82	0.03601379
16.07	0.034968115
16.32	0.038858302
16.57	0.026803754
16.82	0.12046991
17.07	0.6027549
17.32	0.24062571
17.57	0.3136738
17.82	0.2472136
18.07	0.4228948
18.32	0.13342278
18.57	0.19530836
18.82	0.41302934
19.07	0.15106139
19.32	0.44918543
19.57	0.3754234
19.82	0.106232464
20.07	0.26136124
20.32	0.3160654
20.57	0.07625431
20.82	0.10821826
21.07	0.2588347
21.32	0.070761
21.57	0.06424473
21.82	0.12318531
22.07	0.14715745
22.32	0.13304499
22.57	0.17477287
22.82	0.11817443
23.07	0.04597545
23.32	0.07033963
23.57	0.058694515
23.82	0.059615824
24.07	0.098888636
24.32	0.1408417
24.57	0.08523357
24.82	0.054796416
25.07	0.06735402
25.32	0.08688551
25.57	0.23044714
25.820002	0.25619623
26.070002	0.08292927
26.320002	0.05146803
26.570002	0.093811534
26.820002	0.021393234
27.070002	0.06644167
27.320002	0.10180522
27.570002	0.08712248
27.820002	0.076333396
28.070002	0.03750348
28.320002	0.2609096
28.570002	0.21881518
28.820002	0.022001414
29.070002	0.047153722
29.320002	0.047402218
29.570002	0.0563955
29.820002	0.01495878
30.070002	0.04756742
30.320002	1.2723236
30.570002	0.20381488
30.820002	0.03873515
31.070002	0.016877854
31.320002	0.059585787
31.570002	0.08550771
31.820002	0.050500404
32.070004	0.06354577
32.320004	0.01845076
32.570004	0.014100887
32.820004	0.026049294
33.070004	0.013847999
33.320004	0.0976598
33.570004	0.20398735
33.820004	0.032996446
34.070004	0.040360376
34.570004	0.07986654
34.820004	0.049272038
35.070004	0.046814658
35.320004	0.044513352
35.570004	0.020461425
35.820004	0.073576696
36.070004	0.024985567
36.320004	0.050670072
36.570004	0.13036445
36.820004	0.08245587
37.070004	0.0034158246
37.320004	0.0053133434
38.070004	0.010332117
38.320004	0.016492886
39.320004	0.0011251173
39.820004	0.0107792495
40.070004	0.019294074
41.070004	0.0064067706
41.320004	0.004154505
41.570004	0.024773836
41.820004	0.006249514
42.070004	0.0004919833
42.570004	0.004034994
42.820004	0.013246112
43.070004	0.014137299
43.320004	0.015343186
43.570004	0.02805116
43.820004	0.0019060981
44.320004	0.0043097427
44.570004	0.00776683
44.820004	0.0062155905
45.070004	0.00072867604
45.320004	0.010940792
45.570004	0.004307706
45.820004	0.0054803053
46.070004	0.0068139853
46.320004	0.027718652
46.570004	0.03229967
46.820004	0.008577509
47.070004	0.008431482
47.820004	0.006815997
48.070004	0.011007347
48.320004	0.008234547
48.570004	0.010317467
48.820004	0.009852232
49.070004	0.010203304
49.320004	0.0028063296
49.570004	0.015825834
49.820004	0.051035363
50.070004	0.016384356
50.320004	0.0035944004
50.570004	0.0035944004
50.820004	0.0035944004
51.070004	0.0035944004
51.320004	0.0035944004
51.570004	0.0035944004
51.820004	0.0035944004
52.070004	0.0035944004
52.320004	0.0035944004
52.570004	0.0035944004
52.820004	0.0035944004
53.070004	0.0035944004
53.320004	0.0035944004
53.570004	0.0035944004
53.820004	0.0035944004
54.070004	0.0035944004
54.320004	0.0035944004
54.570004	0.0035944004
54.820004	0.0035944004
55.070004	0.008719981
55.320004	0.010165658
55.570004	0.010165658
55.820004	0.010165658
56.070004	0.010165658
56.320004	0.010165658
56.570004	0.010165658
56.820004	0.010165658
57.070004	0.010165658
57.320004	0.010165658
57.570004	0.010165658
57.820004	0.010165658
58.070004	0.010165658
58.320004	0.010165658
58.570004	0.010165658
58.820004	0.010165658
59.070004	0.010165658
59.320004	0.010165658
59.570004	0.010165658
59.820004	0.010165658
60.070004	0.010165658
60.320004	0.010165658
60.570004	0.010165658
60.820004	0.010165658
61.070004	0.010165658
61.320004	0.010165658
61.570004	0.010165658
61.820004	0.010165658
62.070004	0.010165658
62.320004	0.010165658
62.570004	0.010165658
62.820004	0.010165658
63.070004	0.010165658
63.320004	0.010165658
63.570004	0.010165658
63.820004	0.010165658
64.07	0.010165658
64.32	0.010165658
64.57	0.010165658
64.82	0.010165658
65.07	0.008649641
65.32	0.008222044
65.57	0.008222044
65.82	0.008222044
66.07	0.008222044
66.32	0.008222044
66.57	0.008222044
66.82	0.008222044
67.07	0.008222044
67.32	0.008222044
67.57	0.008222044
67.82	0.008222044
68.07	0.008222044
68.32	0.008222044
68.57	0.008222044
68.82	0.008222044
69.07	0.008222044
69.32	0.008222044
69.57	0.008222044
69.82	0.008222044
70.07	0.008222044
70.32	0.008222044
70.57	0.008222044
70.82	0.008222044
71.07	0.008222044
71.32	0.008222044
71.57	0.008222044
71.82	0.008222044
72.07	0.008222044
72.32	0.008222044
72.57	0.008222044
72.82	0.008222044
73.07	0.008222044
73.32	0.008222044
73.57	0.008222044
73.82	0.008222044
74.07	0.008222044
74.32	0.008222044
74.57	0.008222044
74.82	0.008222044
75.07	0.0132715795
75.32	0.014695808
75.57	0.014695808
75.82	0.014695808
76.07	0.014695808
76.32	0.014695808
76.57	0.014695808
76.82	0.014695808
77.07	0.014695808
77.32	0.014695808
77.57	0.014695808
77.82	0.014695808
78.07	0.014695808
78.32	0.014695808
78.57	0.014695808
78.82	0.014695808
79.07	0.014695808
79.32	0.014695808
79.57	0.014695808
79.82	0.014695808
80.07	0.014695808
80.32	0.014695808
80.57	0.014695808
80.82	0.014695808
81.07	0.014695808
81.32	0.014695808
81.57	0.014695808
81.82	0.014695808
82.07	0.014695808
82.32	0.014695808
82.57	0.014695808
82.82	0.014695808
83.07	0.014695808
83.32	0.014695808
83.57	0.014695808
83.82	0.014695808
84.07	0.014695808
84.32	0.014695808
84.57	0.014695808
84.82	0.014695808
85.07	0.014695808
85.32	0.014695808
85.57	0.018682081
85.82	0.025186002
86.07	0.025186002
86.32	0.025186002
86.57	0.025186002
86.82	0.025186002
87.07	0.025186002
87.32	0.025186002
87.57	0.025186002
87.82	0.025186002
88.07	0.025186002
88.32	0.025186002
88.57	0.025186002
88.82	0.025186002
89.07	0.025186002
89.32	0.025186002
89.57	0.025186002
89.82	0.025186002
90.07	0.025186002
90.32	0.025186002
90.57	0.025186002
90.82	0.025186002
91.07	0.025186002
91.32	0.025186002
91.57	0.025186002
91.82	0.025186002
92.07	0.025186002
92.32	0.025186002
92.57	0.025186002
92.82	0.025186002
93.07	0.025186002
93.32	0.025186002
93.57	0.025186002
93.82	0.025186002
94.07	0.025186002
94.32	0.025186002
94.57	0.025186002
94.82	0.025186002
95.07	0.025186002
95.32	0.025186002
95.57	0.025186002
95.82	0.025186002
96.07	0.025186002
96.32	0.025186002
96.57	0.025186002
96.82	0.025186002
97.07	0.020437382
97.32	0.012689629
97.57	0.012689629
97.82	0.012689629
98.07	0.012689629
98.32	0.012689629
98.57	0.012689629
98.82	0.012689629
99.07	0.012689629
99.32	0.012689629
99.57	0.012689629
99.82	0.012689629
100.07	0.012689629
100.32	0.012689629
100.57	0.012689629
100.82	0.012689629
101.07	0.012689629
101.32	0.012689629
101.57	0.012689629
101.82	0.012689629
102.07	0.012689629
102.32	0.012689629
102.57	0.012689629
102.82	0.012689629
103.07	0.085131966
103.32	0.08034882
103.57	0.014417123
103.82	0.024679603
104.07	0.0075166607
104.57	0.010504404
104.82	0.008577274
105.32	0.0012635998
105.57	0.030079613
105.82	0.024113895
106.07	0.043853655
106.32	0.020253867
106.57	0.008397627
106.82	0.009131773
107.07	0.015528117
107.32	0.019728644
107.57	0.0044513154
107.82	0.010907272
108.07	0.017081708
108.32	0.006738887
108.57	0.03177834
108.82	0.002654197
109.32	0.008270507
109.57	0.011726055
109.82	0.006542039
110.07	0.013476591
110.32	0.02147197
110.57	0.008145334
111.32	0.014748239
111.57	0.010639761
111.82	0.0054979934
112.07	0.007822276
112.32	0.011822422
112.57	0.0026374205
112.82	0.013274634
113.07	0.001209812
113.32	0.0025737379
113.57	0.004736913
113.82	0.005752728
114.07	0.0080239475
114.32	0.00914076
114.57	0.0073558725
114.82	0.007262879
115.07	0.006021846
115.32	0.009371376
115.57	0.017295813
115.82	0.012925007
116.07	0.012540449
116.32	0.012542033
116.57	0.0239668
116.82	0.02175076
117.07	0.019929856
117.32	0.012131891
117.57	0.13333233
117.82	0.011431738
118.07	0.008056153
118.32	0.00958171
118.57	0.010989635
118.82	0.013736618
119.07	0.020152973
119.32	0.024111226
119.57	0.015853738
119.82	0.021926142
120.07	0.026404966
120.32	0.01626501
120.57	0.24043441
120.82	0.02292968
121.07	0.00054419704
121.32	0.18205746
121.57	12.266254
121.82	0.17794397
122.07	0.016376957
122.32	0.017646493
122.57	0.013861666
122.82	0.013485925
123.07	0.011156998
123.32	0.010045077
123.57	0.009861723
123.82	0.04447957
124.07	0.010996163
124.32	0.028605003
124.57	0.008296499
124.82	0.010253938
125.07	0.008822143
125.32	0.013290652
125.57	0.011920469
125.82	0.016667018
126.07	0.023336299
126.32	0.005532719
126.57	0.04827447
126.82	0.006866331
127.07	0.0066166846
127.32	0.0058578146
127.57	0.014842808
127.82	0.0126771955
128.06999	0.010030428
128.31999	0.00526608
128.56999	0.0048937676
128.81999	0.012460783
129.06999	0.009100962
129.31999	0.006244067
129.56999	0.013456455
129.81999	0.013156787
130.06999	0.020507807
130.31999	0.11467875
130.56999	0.25496793
130.81999	0.025765002
131.06999	0.016581211
131.31999	0.013055097
131.56999	0.013617031
131.81999	0.018968794
132.06999	0.008107723
132.31999	0.011767381
132.56999	0.0096636005
132.81999	0.015499789
133.06999	0.009312252
133.31999	0.10242139
133.56999	0.34794435
133.81999	0.010024966
134.06999	0.0094010355
134.31999	0.010965207
134.56999	0.010408826
134.81999	0.011154315
135.06999	0.029092882
135.31999	0.013643847
135.56999	0.044537246
135.81999	0.030348204
136.06999	0.017325671
136.31999	0.017535608
136.56999	0.012993039
136.81999	0.015510692
137.06999	0.021196527
137.31999	0.017984489
137.56999	0.01663766
137.81999	0.016017854
138.06999	0.020054776
138.31999	0.016112989
138.56999	0.016212838
138.81999	0.017913511
139.06999	0.017579004
139.31999	0.15455766
139.56999	0.019307185
139.81999	0.020448126
140.06999	0.03759391
140.31999	0.087802574
140.56999	0.030107573
140.81999	0.0240806
141.06999	0.02631888
141.31999	0.025509484
141.56999	0.025682805
141.81999	0.024169644
142.06999	0.023638897
142.31999	0.02521681
142.56999	0.035532918
142.81999	0.024669694
143.06999	0.02865352
143.31999	0.038195435
143.56999	0.033527352
143.81999	0.0285072
144.06999	0.030025875
144.31999	0.032467347
144.56999	0.034623306
144.81999	0.031856593
145.06999	0.03160576
145.31999	0.0328437
145.56999	0.038365237
145.81999	0.03733632
146.06999	0.034610994
146.31999	0.0416094
146.56999	0.039126627
146.81999	0.05377066
147.06999	0.043869648
147.31999	0.08861655
147.56999	0.04224214
147.81999	0.03981276
148.06999	0.060379118
148.31999	0.052730024
148.56999	0.05861771
148.81999	0.046285592
149.06999	0.045403145
149.31999	0.052714616
149.56999	0.047244165
149.81999	0.050781224
150.06999	0.058058396
150.31999	0.057154857
150.56999	0.05437575
150.81999	0.05612179
151.06999	0.06806627
151.31999	0.06123291
151.56999	0.06247484
151.81999	0.061316077
152.06999	0.06429336
152.31999	0.06803039
152.56999	0.10806623
152.81999	0.0733489
153.06999	0.06967797
153.31999	0.122348025
153.56999	0.07908057
153.81999	0.08081995
154.06999	0.08943013
154.31999	0.076658465
154.56999	0.08118245
154.81999	0.38083535
155.06999	0.24506302
155.31999	0.078654
155.56999	0.08453097
155.81999	0.13296121
156.06999	0.21806188
156.31999	0.09887915
156.56999	0.10222109
156.81999	0.09882371
157.06999	0.13316056
157.31999	0.12326927
157.56999	0.1311227
157.81999	0.097533375
158.06999	0.11480317
158.31999	0.098723836
158.56999	0.12220342
158.81999	0.12597804
159.06999	0.11380811
159.31999	0.11882365
159.56999	0.11533749
159.81999	0.10078653
160.06999	0.12635168
160.31999	0.14428592
160.56999	0.120789126
160.81999	0.13687043
161.06999	0.15689406
161.31999	0.18257704
161.56999	0.13075815
161.81999	0.1425221
162.06999	0.16520528
162.31999	0.16704473
162.56999	0.19159505
162.81999	0.1840864
163.06999	0.15933129
163.31999	0.21664765
163.56999	0.15790614
163.81999	0.19673029
164.06999	0.25756055
164.31999	0.20717254
164.56999	0.18692322
164.81999	0.19637984
165.06999	0.1677075
165.31999	0.2101981
165.56999	0.39838958
165.81999	0.5725206
166.06999	0.22981542
166.31999	0.24126829
166.56999	0.2506644
166.81999	0.20896286
167.06999	0.3120361
167.31999	0.26096827
167.56999	0.26118568
167.81999	0.25904012
168.06999	0.20452096
168.31999	0.20860715
168.56999	0.34796816
168.81999	0.2453627
169.06999	0.35707462
169.31999	0.37944928
169.56999	0.42879295
169.81999	0.35362345
170.06999	0.3814341
170.31999	0.28471056
170.56999	0.31910536
170.81999	0.32620472
171.06999	0.34805036
171.31999	0.36457166
171.56999	0.4795188
171.81999	0.4830329
172.06999	0.48100495
172.31999	0.42532194
172.56999	0.53205734
172.81999	0.41469902
173.06999	0.29945657
173.31999	0.33695304
173.56999	0.37920517
173.81999	0.38443682
174.06999	0.4911912
174.31999	0.523313
174.56999	0.60465866
174.81999	0.5259468
175.06999	0.6410658
175.31999	0.63788295
175.56999	0.6633204
175.81999	0.65725476
176.06999	0.6444899
176.31999	0.6246001
176.56999	0.5693009
176.81999	0.7257259
177.06999	0.7985813
177.31999	0.89458513
177.56999	0.67264706
177.81999	0.84250414
178.06999	0.89323187
178.31999	0.8737007
178.56999	0.90709424
178.81999	0.9549073
179.06999	1.0234694
179.31999	0.7622879
179.56999	0.8368564
179.81999	0.91239697
180.06999	0.96897924
180.31999	0.9847268
180.56999	1.0203347
180.81999	1.4040023
181.06999	1.061276
181.31999	0.9950688
181.56999	1.7720777
181.81999	1.4613178
182.06999	1.1695994
182.31999	1.3190341
182.56999	1.2985044
182.81999	1.2149749
183.06999	1.2535903
183.31999	1.3205518
183.56999	1.3620913
183.81999	1.4508145
184.06999	1.1463814
184.31999	1.269218
184.56999	1.2441514
184.81999	1.0650451
185.06999	1.1541821
185.31999	1.2804323
185.56999	1.6028987
185.81999	1.3381805
186.06999	1.453688
186.31999	1.4581262
186.56999	1.4422646
186.81999	1.779735
187.06999	1.8049024
187.31999	1.7880447
187.56999	1.7249465
187.81999	1.6746658
188.06999	1.6054537
188.31999	1.9919198
188.56999	1.9209838
188.81999	1.9541137
189.06999	2.192341
189.31999	2.197867
189.56999	2.2162123
189.81999	1.8752652
190.06999	2.0797608
190.31999	2.2953176
190.56999	2.1518037
190.81999	2.4590125
191.06999	2.1384408
191.31999	2.3017116
191.56999	2.5674179
191.81999	2.3981545
192.06999	2.6982808
192.31999	2.5554738
192.56999	2.530329
192.81999	2.594051
193.06999	1.9655955
193.31999	1.9324623
193.56999	1.7570359
193.81999	2.387685
194.06999	2.9031086
194.31999	3.3773346
194.56999	3.0158699
194.81999	3.5729003
195.06999	3.066324
195.31999	3.15141
195.56999	3.251369
195.81999	3.2996132
196.06999	3.251443
196.31999	3.2758923
196.56999	3.7718606
196.81999	3.9411497
197.06999	3.7061298
197.31999	3.6617005
197.56999	3.6750934
197.81999	3.6342824
198.06999	3.86351
198.31999	3.890944
198.56999	3.70836
198.81999	3.591789
199.06999	3.7254682
199.31999	4.2680187
199.56999	4.033946
199.81999	3.9217224
200.06999	4.2200747
200.31999	4.3307757
200.56999	4.4334326
200.81999	4.284556
201.06999	4.4210677
201.31999	4.7936273
201.56999	4.6353354
201.81999	5.046783
202.06999	4.8192515
202.31999	4.8554993
202.56999	4.028822
202.81999	5.0395966
203.06999	5.4134707
203.31999	5.023663
203.56999	5.3157716
203.81999	5.453311
204.06999	5.427227
204.31999	5.9360666
204.56999	6.0979195
204.81999	5.852622
205.06999	6.041384
205.31999	6.3167763
205.56999	5.8971825
205.81999	6.097497
206.06999	6.5525966
206.31999	5.8644037
206.56999	6.5573144
206.81999	6.8053207
207.06999	6.8354836
207.31999	6.98588
207.56999	7.2920322
207.81999	7.3414164
208.06999	7.647826
208.31999	7.650619
208.56999	8.0504675
208.81999	9.588467
209.06999	9.280791
209.31999	10.866894
209.56999	11.414809
209.81999	12.143239
210.06999	11.67013
210.31999	13.183928
210.56999	16.550957
210.81999	14.290283
211.06999	12.473799
211.31999	17.049623
211.56999	14.981401
211.81999	19.16043
212.06999	21.52525
212.31999	13.057396
212.56999	12.298361
212.81999	17.743286
213.06999	14.509861
213.31999	16.61145
213.56999	13.729058
213.81999	17.827536
214.06999	21.03036
214.31999	23.684513
214.56999	20.574623
214.81999	21.26834
215.06999	19.265272
215.31999	22.845078
215.56999	18.784016
215.81999	12.306765
216.06999	19.430548
216.31999	20.241507
216.56999	17.285288
216.81999	15.214447
217.06999	16.42711
217.31999	19.72785
217.56999	15.512751
217.81999	15.759018
218.06999	27.216242
218.31999	25.39609
218.56999	24.71627
218.81999	17.839752
219.06999	21.637016
219.31999	27.10511
219.56999	20.918434
219.81999	27.40992
220.06999	20.360136
220.31999	31.674234
220.56999	28.907898
220.81999	20.142723
221.06999	17.168037
221.31999	22.063938
221.56999	23.384296
221.81999	16.22525
222.06999	28.148056
222.31999	26.178864
222.56999	25.392754
222.81999	24.427319
223.06999	23.650127
223.31999	37.15436
223.56999	37.715645
223.81999	29.736872
224.06999	32.017567
224.31999	26.357222
224.56999	29.29993
224.81999	35.6445
225.06999	28.317938
225.31999	27.020947
225.56999	27.698166
225.81999	28.300632
226.06999	24.488775
226.31999	25.200142
226.56999	19.396158
226.81999	20.222128
227.06999	18.53999
227.31999	20.607817
227.56999	20.793398
227.81999	24.792862
228.06999	29.212349
228.31999	31.77933
228.56999	32.08805
228.81999	26.116678
229.06999	25.337826
229.31999	28.016392
229.56999	32.870846
229.81999	20.074936
230.06999	23.53388
230.31999	26.29854
230.56999	37.35627
230.81999	36.199715
231.06999	23.292028
231.31999	21.15519
231.56999	33.28539
231.81999	33.96958
232.06999	22.690128
232.31999	38.723026
232.56999	28.70062
232.81999	29.018976
233.06999	31.813326
233.31999	24.184784
233.56999	34.01923
233.81999	20.533361
234.06999	26.436575
234.31999	24.94366
234.56999	19.297436
234.81999	20.640831
235.06999	31.863007
235.31999	37.81401
235.56999	32.44225
235.81999	37.07563
236.06999	23.044865
236.31999	33.367783
236.56999	28.176922
236.81999	26.13796
237.06999	38.103817
237.31999	31.573391
237.56999	30.299992
237.81999	38.002087
238.06999	24.660313
238.31999	16.531046
238.56999	33.14763
238.81999	27.276966
239.06999	37.77039
239.31999	38.123432
239.56999	19.980516
239.81999	31.35824
240.06999	29.87832
240.31999	34.50802
240.56999	21.29419
240.81999	27.709167
241.06999	25.236284
241.31999	27.660448
241.56999	35.872196
241.81999	42.57528
242.06999	43.957325
242.31999	48.573936
242.56999	42.192642
242.81999	49.077133
243.06999	47.18625
243.31999	43.57563
243.56999	38.99349
243.81999	45.578304
244.06999	43.28495
244.31999	46.144848
244.56999	43.52669
244.81999	35.50869
245.06999	36.309364
245.31999	33.208584
245.56999	36.161945
245.81999	38.471714
246.06999	34.25448
246.31999	30.792887
246.56999	37.93296
246.81999	39.150497
247.06999	40.09124
247.31999	37.150932
247.56999	46.14913
247.81999	40.097954
248.06999	38.660656
248.31999	28.772058
248.56999	36.558517
248.81999	30.431973
249.06999	23.19181
249.31999	38.901215
249.56999	48.298256
249.81999	48.583122
250.06999	46.9731
250.31999	44.522556
250.56999	46.16013
250.81999	36.553856
251.06999	44.735176
251.31999	41.22165
251.56999	27.395126
251.81999	31.859089
252.06999	35.153194
252.31999	30.67977
252.56999	31.007917
252.81999	30.09074
253.06999	35.278893
253.31999	41.671898
253.56999	40.284584
253.81999	39.87132
254.06999	40.25333
254.31999	48.42552
254.56999	42.56327
254.81999	44.017254
255.06999	41.216545
255.31999	60.872322
255.56999	64.3545
255.81999	58.794907
256.07	69.87267
256.32	48.905468
256.57	80.08255
256.82	78.38788
257.07	94.49762
257.32	99.58851
257.57	63.496246
257.82	82.22252
258.07	117.842545
258.32	105.46192
258.57	55.550133
258.82	84.11688
259.07	121.96695
259.32	71.486755
259.57	81.95458
259.82	55.656464
260.07	47.02253
260.32	89.40828
260.57	67.60379
260.82	53.784008
261.07	71.05589
261.32	44.437748
261.57	74.71991
261.82	65.95237
262.07	88.9337
262.32	82.41691
262.57	83.34542
262.82	65.98244
263.07	60.413307
263.32	71.905014
263.57	126.4346
263.82	180.38284
264.07	163.3989
264.32	226.81358
264.57	162.33817
264.82	133.70976
265.07	137.45967
265.32	160.94916
265.57	197.24245
265.82	192.40561
266.07	200.61633
266.32	145.80702
266.57	178.74625
266.82	177.15543
267.07	176.7034
267.32	133.77696
267.57	214.69347
267.82	173.79492
268.07	163.0765
268.32	168.86179
268.57	165.62553
268.82	172.81299
269.07	137.84236
269.32	175.10477
269.57	141.84679
269.82	166.89432
270.07	217.87106
270.32	179.96878
270.57	214.6849
270.82	166.77208
271.07	193.57602
271.32	204.53705
271.57	140.68082
271.82	168.89798
272.07	81.88536
272.32	148.92867
272.57	152.96844
272.82	158.02405
273.07	214.43652
273.32	172.873
273.57	172.069
273.82	112.543175
274.07	99.31802
274.32	84.454
274.57	125.11136
274.82	98.336296
275.07	73.93118
275.32	174.86755
275.57	102.56172
275.82	177.65
276.07	206.41855
276.32	156.54562
276.57	234.67131
276.82	178.30078
277.07	189.25337
277.32	206.62775
277.57	206.55275
277.82	149.0117
278.07	127.51235
278.32	129.88159
278.57	147.44536
278.82	123.859856
279.07	90.910995
279.32	63.52941
279.57	59.80614
279.82	43.362938
280.07	60.101753
280.32	54.999016
280.57	69.98849
280.82	106.87099
281.07	137.52971
281.32	138.85426
281.57	223.15137
281.82	197.01775
282.07	233.16513
282.32	230.40048
282.57	234.72444
282.82	234.82361
283.07	290.1506
283.32	273.71915
283.57	209.37982
283.82	298.21082
284.07	240.4147
284.32	226.31516
284.57	231.09613
284.82	148.39058
285.07	87.916885
285.32	40.583443
285.57	113.83167
285.82	182.50082
286.07	259.12634
286.32	288.59692
286.57	313.99747
286.82	258.33612
287.07	279.8032
287.32	330.6871
287.57	269.5568
287.82	236.65176
288.07	165.38414
288.32	140.15443
288.57	313.23407
288.82	281.16208
289.07	276.8736
289.32	304.45288
289.57	326.91846
289.82	382.02344
290.07	511.04846
290.32	417.64496
290.57	471.6515
290.82	411.6469
291.07	403.0533
291.32	500.70987
291.57	371.9973
291.82	405.43076
292.07	404.7052
292.32	417.17053
292.57	332.7685
292.82	314.9181
293.07	404.71832
293.32	465.75287
293.57	483.86603
293.82	264.4
294.07	357.72247
294.32	415.98477
294.57	418.50458
294.82	302.36655
295.07	351.6429
295.32	468.10187
295.57	408.8921
295.82	407.79468
296.07	430.10205
296.32	497.9819
296.57	321.9836
296.82	283.95398
297.07	280.3689
297.32	303.05515
297.57	455.46838
297.82	570.0324
298.07	387.23984
298.32	228.79001
298.57	224.68742
298.82	319.75327
299.07	473.49152
299.32	405.9256
299.57	274.88925
299.82	447.3157
300.07	182.11397
300.32	218.40863
300.57	387.82056
300.82	239.72746
301.07	387.84076
301.32	345.0216
301.57	398.56476
301.82	338.45404
302.07	147.14685
302.32	416.22464
302.57	314.8296
302.82	551.3681
303.07	436.31122
303.32	524.833
303.57	569.8418
303.82	334.79373
304.07	467.19934
304.32	418.82413
304.57	543.0663
304.82	345.8936
305.07	491.96307
305.32	656.31775
305.57	454.19876
305.82	292.1317
306.07	364.95926
306.32	530.64886
306.57	414.80963
306.82	329.67627
307.07	564.17865
307.32	518.90314
307.57	406.96143
307.82	481.68292
308.07	574.7541
308.32	359.0361
308.57	649.7678
308.82	445.20184
309.07	445.2661
309.32	287.45047
309.57	479.41895
309.82	361.19165
310.07	279.88266
310.32	413.33145
310.57	513.69617
310.82	589.15857
311.07	583.20215
311.32	650.8857
311.57	597.8417
311.82	419.9397
312.07	260.5885
312.32	513.0378
312.57	509.47665
312.82	531.4879
313.07	523.7638
313.32	298.35303
313.57	467.07574
313.82	589.12775
314.07	611.90674
314.32	516.6994
314.57	179.23746
314.82	338.77823
315.07	592.09045
315.32	553.64233
315.57	485.18976
315.82	309.6547
316.07	509.71002
316.32	738.5066
316.57	636.7003
316.82	681.7868
317.07	927.6529
317.32	1062.133
317.57	949.5171
317.82	730.1446
318.07	561.6312
318.32	525.6479
318.57	744.13477
318.82	995.48096
319.07	854.2294
319.32	516.78467
319.57	650.25824
319.82	939.27
320.07	747.2883
320.32	914.7949
320.57	967.13525
320.82	755.33826
321.07	564.9278
321.32	491.1296
321.57	784.2432
321.82	785.40344
322.07	834.2009
322.32	779.4956
322.57	662.1872
322.82	415.94162
323.07	620.9293
323.32	632.0984
323.57	505.10498
323.82	725.9457
324.07	900.2765
324.32	694.08624
324.57	1137.2592
324.82	602.08875
325.07	919.99915
325.32	743.2312
325.57	1139.1893
325.82	1159.5315
326.07	978.21783
326.32	1038.2285
326.57	1028.4459
326.82	1046.4625
327.07	783.5691
327.32	961.5719
327.57	1048.505
327.82	835.8274
328.07	866.6571
328.32	945.9278
328.57	970.9576
328.82	964.47864
329.07	1081.398
329.32	1182.2922
329.57	1079.4634
329.82	1221.3895
330.07	1143.7908
330.32	913.7903
330.57	855.0885
330.82	983.25854
331.07	1029.785
331.32	818.63293
331.57	847.9365
331.82	1060.3517
332.07	973.85284
332.32	813.0181
332.57	1111.212
332.82	926.85126
333.07	1052.8032
333.32	1053.5823
333.57	717.1073
333.82	957.78375
334.07	877.68256
334.32	998.26324
334.57	992.5095
334.82	761.9414
335.07	874.02094
335.32	1017.88885
335.57	961.0547
335.82	829.4867
336.07	350.5111
336.32	888.5208
336.57	941.11945
336.82	721.4936
337.07	551.69867
337.32	526.26
337.57	1040.5173
337.82	912.74286
338.07	663.41547
338.32	757.1876
338.57	1054.9541
338.82	767.9968
339.07	987.7333
339.32	579.25287
339.57	934.9149
339.82	921.80066
340.07	1110.8464
340.32	821.01105
340.57	760.10583
340.82	800.7644
341.07	944.50507
341.32	627.55646
341.57	657.18134
341.82	805.19336
342.07	975.9935
342.32	715.7571
342.57	876.2328
342.82	940.03424
343.07	1082.795
343.32	857.1044
343.57	1177.484
343.82	825.85315
344.07	543.31146
344.32	516.6769
344.57	804.0853
344.82	1026.7539
345.07	1162.0325
345.32	745.59924
345.57	1250.4137
345.82	767.8022
346.07	647.71094
346.32	1001.64984
346.57	827.369
346.82	1056.7324
347.07	1186.859
347.32	772.6426
347.57	637.75183
347.82	887.77924
348.07	1160.8458
348.32	932.21765
348.57	1180.988
348.82	1139.2844
349.07	791.74414
349.32	837.08435
349.57	892.52576
349.82	949.5893
350.07	1121.4664
350.32	1273.2712
350.57	1111.0944
350.82	1069.9027
351.07	914.1504
351.32	917.3015
351.57	901.3107
351.82	1100.034
352.07	788.098
352.32	815.7626
352.57	541.7951
352.82	1107.7928
353.07	1020.50415
353.32	1012.6067
353.57	1062.2383
353.82	1168.709
354.07	1263.6119
354.32	1226.4039
354.57	1246.2051
354.82	1027.3901
355.07	1155.9716
355.32	912.04443
355.57	963.3231
355.82	1179.6952
356.07	884.81775
356.32	1426.3735
356.57	584.2848
356.82	934.33154
357.07	673.38196
357.32	840.08374
357.57	949.535
357.82	923.68335
358.07	620.82196
358.32	998.823
358.57	494.3881
358.82	722.6738
359.07	1052.4293
359.32	1050.9071
359.57	1016.4359
359.82	1285.5078
360.07	1331.6609
360.32	858.99927
360.57	840.7882
360.82	829.4525
361.07	862.41736
361.32	954.9401
361.57	1161.2151
361.82	608.38354
362.07	879.8453
362.32	1095.6725
362.57	1284.6788
362.82	1357.4558
363.07	737.9224
363.32	974.0516
363.57	787.28546
363.82	1112.6594
364.07	1287.9431
364.32	1092.4657
364.57	1019.8025
364.82	680.5297
365.07	919.8159
365.32	1348.9722
365.57	1241.5194
365.82	1418.8284
366.07	1246.3755
366.32	1240.2631
366.57	1134.8767
366.82	1100.8654
367.07	1167.6382
367.32	1306.7012
367.57	1311.1355
367.82	1185.011
368.07	915.985
368.32	1072.4336
368.57	968.1987
368.82	952.18445
369.07	1284.2238
369.32	1162.2058
369.57	1359.1875
369.82	1319.6504
370.07	1375.7769
370.32	955.7797
370.57	892.44336
370.82	866.7262
371.07	1130.917
371.32	1415.8975
371.57	1413.6578
371.82	1235.8779
372.07	518.9031
372.32	935.0394
372.57	1316.5796
372.82	1010.9182
373.07	1164.4166
373.32	728.8063
373.57	505.61273
373.82	803.53345
374.07	1306.2981
374.32	945.0128
374.57	676.0033
374.82	626.86597
375.07	827.01917
375.32	1351.8333
375.57	1656.363
375.82	729.4504
376.07	1086.3655
376.32	1174.6656
376.57	1388.4401
376.82	1098.7855
377.07	1006.80237
377.32	1535.7521
377.57	1385.4966
377.82	1324.6411
378.07	1955.1338
378.32	1601.6929
378.57	1672.4622
378.82	1209.9427
379.07	1262.6902
379.32	1323.155
379.57	1212.4111
379.82	834.55865
380.07	1303.9154
380.32	1813.2709
380.57	1337.1129
380.82	1426.1554
381.07	1714.3813
381.32	1588.509
381.57	930.6172
381.82	1590.7979
382.07	714.93317
382.32	1293.9232
382.57	723.0288
382.82	817.0599
383.07	917.81195
383.32	531.0027
383.57	849.49005
383.82	632.05334
384.07	829.19916
384.32	1322.766
384.57	1437.088
384.82	1800.3676
385.07	1474.1077
385.32	1687.5974
385.57	1280.554
385.82	1098.915
386.07	1022.1609
386.32	1529.208
386.57	1424.5295
386.82	1413.4789
387.07	1379.2413
387.32	1136.9435
387.57	1483.9196
387.82	1017.8034
388.07	1801.2773
388.32	1630.9541
388.57	915.7868
388.82	949.37415
389.07	1210.6871
389.32	1364.9135
389.57	1238.364
389.82	1524.8755
390.07	1410.0144
390.32	1216.1937
390.57	1187.1926
390.82	1599.1887
391.07	1535.8049
391.32	1642.1857
391.57	1670.404
391.82	1533.8234
392.07	1123.0923
392.32	1433.7241
392.57	1452.8973
392.82	928.05505
393.07	579.3597
393.32	330.4807
393.57	531.43384
393.82	932.7762
394.07	1383.5023
394.32	1136.2776
394.57	1738.9983
394.82	1383.8416
395.07	1747.7205
395.32	1628.6548
395.57	1632.8029
395.82	1842.5403
396.07	1345.6134
396.32	1095.8029
396.57	725.539
396.82	350.1776
397.07	655.9839
397.32	996.0953
397.57	1283.2588
397.82	1844.1401
398.07	1814.7158
398.32	1639.9144
398.57	1735.88
398.82	2142.004
399.07	1810.6423
399.32	1965.78
399.57	1759.4412
399.82	1563.2627
400.07	1993.6289
400.32	2058.6772
400.57	1519.6406
400.82	2165.352
401.07	1817.4924
401.32	1943.927
401.57	1940.4791
401.82	2015.384
402.07	1854.442
402.32	1942.312
402.57	1714.9734
402.82	2099.8396
403.07	1441.4418
403.32	1480.0603
403.57	1650.7898
403.82	2106.0476
404.07	1907.7577
404.32	1979.5197
404.57	1233.1803
404.82	1960.4231
405.07	2073.4792
405.32	1954.563
405.57	1914.6968
405.82	1643.3275
406.07	2111.1401
406.32	1303.3833
406.57	1787.2406
406.82	1865.3286
407.07	1494.6754
407.32	1997.2131
407.57	1625.2123
407.82	1670.0096
408.07	2089.0703
408.32	1781.5596
408.57	1903.0555
408.82	2178.6306
409.07	2122.561
409.32	2142.4312
409.57	1880.8643
409.82004	1904.5924
410.07004	1323.1342
410.32004	1512.5913
410.57004	1851.8997
410.82004	1960.9406
411.07004	2029.7529
411.32004	2057.3105
411.57004	2078.4028
411.82004	1906.0371
412.07004	2092.957
412.32004	2052.1865
412.57004	2075.1006
412.82004	1766.3545
413.07004	2061.5168
413.32004	1575.7427
413.57004	2004.0703
413.82004	2052.82
414.07004	2089.883
414.32004	1558.7949
414.57004	2196.0264
414.82004	1986.0708
415.07004	1943.3302
415.32004	1849.9469
415.57004	1867.8969
415.82004	1946.0808
416.07004	2104.749
416.32004	2004.0769
416.57004	2209.848
416.82004	1986.2925
417.07004	1955.3889
417.32004	1669.5742
417.57004	1780.442
417.82004	1802.4731
418.07004	1980.4901
418.32004	2109.787
418.57004	1858.2806
418.82004	1724.3857
419.07004	1892.5264
419.32004	2207.8823
419.57004	1704.5079
419.82004	1704.0942
420.07004	1753.9343
420.32004	1677.5629
420.57004	1815.9165
420.82004	2210.581
421.07004	1939.746
421.32004	2095.802
421.57004	1803.4255
421.82004	1822.8584
422.07004	2226.5547
422.32004	1882.506
422.57004	1265.9996
422.82004	1765.7175
423.07004	2020.7972
423.32004	1899.7078
423.57004	1751.1313
423.82004	1779.3811
424.07004	1884.6649
424.32004	1716.71
424.57004	1970.517
424.82004	1693.6943
425.07004	1613.0391
425.32004	1777.1033
425.57004	1816.2507
425.82004	1983.831
426.07004	1456.3691
426.32004	1874.409
426.57004	1852.0021
426.82004	1804.8049
427.07004	1174.7319
427.32004	1531.1487
427.57004	1552.3243
427.82004	1957.5048
428.07004	1575.1284
428.32004	1745.5255
428.57004	1482.4901
428.82004	1632.7261
429.07004	1339.2408
429.32004	1680.8359
429.57004	1551.272
429.82004	1208.3755
430.07004	1062.3466
430.32004	1064.5256
430.57004	1149.8982
430.82004	922.42035
431.07004	1031.5641
431.32004	1361.2054
431.57004	2005.3992
431.82004	2195.7136
432.07004	1972.1974
432.32004	1526.3856
432.57004	1241.5214
432.82004	1950.6886
433.07004	1943.8408
433.32004	2000.3712
433.57004	2117.9116
433.82004	1406.2764
434.07004	1145.772
434.32004	1702.2495
434.57004	1924.1624
434.82004	1828.875
435.07004	1610.3258
435.32004	1786.8846
435.57004	1782.8896
435.82004	2074.1128
436.07004	1949.8842
436.32004	1911.7585
436.57004	2138.6333
436.82004	1968.614
437.07004	1790.7947
437.32004	1923.6287
437.57004	1728.6302
437.82004	1949.5696
438.07004	2095.6633
438.32004	1273.2579
438.57004	1702.3237
438.82004	1806.4854
439.07004	1650.356
439.32004	1922.9125
439.57004	1768.4255
439.82004	1979.3982
440.07004	1612.0616
440.32004	2017.9312
440.57004	1732.8684
440.82004	1800.8295
441.07004	2082.2034
441.32004	2122.3337
441.57004	1752.2141
441.82004	1975.6769
442.07004	2002.8601
442.32004	1945.5881
442.57004	2129.9543
442.82004	2083.6128
443.07004	1925.9583
443.32004	2083.0505
443.57004	1833.9958
443.82004	2294.7053
444.07004	2044.1283
444.32004	1744.9867
444.57004	2161.0017
444.82004	2176.102
445.07004	2043.1907
445.32004	2072.8892
445.57004	1615.4358
445.82004	1806.4784
446.07004	1887.293
446.32004	2107.1963
446.57004	1947.4807
446.82004	2041.8589
447.07004	1969.176
447.32004	2240.708
447.57004	2226.0308
447.82004	2400.8662
448.07004	2001.8007
448.32004	1922.1575
448.57004	2358.2344
448.82004	2066.6519
449.07004	2063.5183
449.32004	2287.0906
449.57004	1978.1833
449.82004	2183.9792
450.07004	2041.1713
450.32004	2149.0615
450.57004	2137.7078
450.82004	2085.7803
451.07004	2132.1636
451.32004	2100.4878
451.57004	2005.0581
451.82004	1940.3773
452.07004	2067.3655
452.32004	1942.1349
452.57004	1777.5677
452.82004	1728.8728
453.07004	1838.302
453.32004	1883.5277
453.57004	1756.3079
453.82004	2091.6252
454.07004	1917.4326
454.32004	2090.3025
454.57004	1853.2692
454.82004	1890.511
455.07004	1923.0725
455.32004	1976.8651
455.57004	1802.644
455.82004	2091.8735
456.07004	2098.7148
456.32004	2058.1465
456.57004	1973.4467
456.82004	2089.2441
457.07004	1891.1064
457.32004	2020.3661
457.57004	2057.7063
457.82004	1980.1556
458.07004	1786.902
458.32004	1891.4165
458.57004	1881.8445
458.82004	1959.5566
459.07004	1910.9313
459.32004	1889.2919
459.57004	1882.2557
459.82004	1986.2108
460.07004	1783.7377
460.32004	1927.4895
460.57004	1953.2151
460.82004	2045.9252
461.07004	1933.811
461.32004	1900.7683
461.57004	1974.2516
461.82004	1868.7207
462.07004	2031.4613
462.32004	2043.6294
462.57004	1955.0266
462.82004	2027.096
463.07004	2080.9155
463.32004	1918.0381
463.57004	2036.5647
463.82004	1925.2622
464.07004	2097.6506
464.32004	2090.6492
464.57004	1990.7041
464.82004	1870.5972
465.07004	2056.455
465.32004	2015.879
465.57004	1865.8624
465.82004	2047.3706
466.07004	2124.1191
466.32004	2053.3933
466.57004	1968.6545
466.82004	1667.0955
467.07004	2085.2134
467.32004	2029.0759
467.57004	1991.8195
467.82004	1941.3817
468.07004	1935.8396
468.32004	2055.2212
468.57004	1894.1249
468.82004	2064.6533
469.07004	1894.0199
469.32004	2068.5566
469.57004	2086.746
469.82004	1820.9144
470.07004	1857.9746
470.32004	1770.6061
470.57004	2024.04
470.82004	1825.241
471.07004	1941.6559
471.32004	1757.1167
471.57004	1978.6354
471.82004	2107.7278
472.07004	2074.7034
472.32004	1980.4088
472.57004	2131.6748
472.82004	1817.3488
473.07004	1868.6965
473.32004	1920.5635
473.57004	1949.9391
473.82004	1994.1604
474.07004	1971.3679
474.32004	2052.2324
474.57004	2017.6942
474.82004	2124.395
475.07004	2096.5886
475.32004	1979.0151
475.57004	1921.5195
475.82004	1985.5219
476.07004	2074.82
476.32004	1910.368
476.57004	1888.3972
476.82004	2011.6553
477.07004	2045.3632
477.32004	2015.1807
477.57004	2074.2217
477.82004	2162.749
478.07004	2029.8463
478.32004	1999.1577
478.57004	1905.498
478.82004	1956.7212
479.07004	2002.8053
479.32004	1965.4971
479.57004	2087.6394
479.82004	1976.5358
480.07004	1970.1194
480.32004	2054.3723
480.57004	1980.3894
480.82004	1921.0436
481.07004	1984.8667
481.32004	1937.8595
481.57004	2062.034
481.82004	1981.74
482.07004	2015.9943
482.32004	1883.6791
482.57004	2050.8157
482.82004	1969.9237
483.07004	2014.386
483.32004	1997.5902
483.57004	1885.0934
483.82004	1979.796
484.07004	1712.0168
484.32004	1921.4196
484.57004	1981.8247
484.82004	1934.8379
485.07004	1979.1173
485.32004	1946.4196
485.57004	1688.0292
485.82004	1736.2292
486.07004	1125.8163
486.32004	1498.6677
486.57004	1727.8948
486.82004	1857.8589
487.07004	1684.2566
487.32004	1774.6174
487.57004	1861.97
487.82004	1814.0205
488.07004	1938.85
488.32004	1988.4714
488.57004	1848.609
488.82004	1691.5753
489.07004	1645.8901
489.32004	1984.5424
489.57004	2031.9539
489.82004	2112.2197
490.07004	1933.3164
490.32004	1772.5544
490.57004	2086.7407
490.82004	1928.7141
491.07004	1759.2949
491.32004	1896.5308
491.57004	2025.5796
491.82004	1656.83
492.07004	1735.7798
492.32004	1890.6781
492.57004	1853.0157
492.82004	2031.1158
493.07004	2058.7747
493.32004	1807.3257
493.57004	1951.5823
493.82004	1746.6737
494.07004	1863.3422
494.32004	1965.1234
494.57004	1930.788
494.82004	2017.1399
495.07004	2040.1881
495.32004	2014.5396
495.57004	1944.5444
495.82004	1623.7847
496.07004	2095.4644
496.32004	2018.2347
496.57004	1899.7865
496.82004	1926.8969
497.07004	1914.0847
497.32004	1995.2224
497.57004	2010.913
497.82004	1908.7046
498.07004	1771.9337
498.32004	1541.0339
498.57004	1789.0624
498.82004	1934.4196
499.07004	1912.6199
499.32004	1803.1471
499.57004	2034.0924
499.82004	1900.4067
500.07004	1774.5928
500.32004	1886.508
500.57004	1738.7428
500.82004	1912.4963
501.07004	1872.0043
501.32004	1528.7026
501.57004	1790.2972
501.82004	1736.1245
502.07004	1831.9152
502.32004	1801.1073
502.57004	1975.6929
502.82004	1870.8333
503.07004	1944.057
503.32004	2062.0708
503.57004	1786.258
503.82004	1839.813
504.07004	1467.8091
504.32004	1927.9941
504.57004	2082.171
504.82004	1867.6567
505.07004	1655.4524
505.32004	2002.8728
505.57004	2036.3638
505.82004	2023.6664
506.07004	1984.666
506.32004	2043.9197
506.57004	1782.2759
506.82004	1805.0061
507.07004	2050.1064
507.32004	1869.8547
507.57004	1787.8516
507.82004	1897.8491
508.07004	1620.7732
508.32004	1649.7975
508.57004	1958.7151
508.82004	1852.7312
509.07004	1960.11
509.32004	1985.9392
509.57004	1993.8406
509.82004	1688.6726
510.07004	1882.1218
510.32004	1935.0557
510.57004	1951.936
510.82004	1733.5488
511.07004	1704.969
511.32004	1977.7393
511.57004	1891.9402
511.82004	1972.6313
512.07	1903.6158
512.32	1794.7273
512.57	1673.5107
512.82	1709.7072
513.07	1868.971
513.32	1831.9568
513.57	1957.6746
513.82	1645.4713
514.07	1850.273
514.32	1693.7054
514.57	1824.3019
514.82	1796.9745
515.07	1737.5775
515.32	1798.5735
515.57	1850.8455
515.82	1907.888
516.07	1942.0806
516.32	1802.2106
516.57	1629.6116
516.82	1221.8151
517.07	1679.5754
517.32	1222.321
517.57	1870.943
517.82	1855.9746
518.07	1856.2136
518.32	1112.5598
518.57	1700.4065
518.82	1813.6559
519.07	1830.2968
519.32	1739.6412
519.57	1615.0897
519.82	1812.689
520.07	1955.5687
520.32	1846.3832
520.57	1577.4631
520.82	1692.3132
521.07	1841.1029
521.32	1956.7345
521.57	1691.8447
521.82	1811.3306
522.07	1886.0334
522.32	1919.2021
522.57	1682.5316
522.82	1668.7207
523.07	1853.5613
523.32	1773.4181
523.57	1714.0842
523.82	1936.7742
524.07	1951.7441
524.32	1823.8829
524.57	1873.6614
524.82	1847.4749
525.07	1822.8755
525.32	1938.4618
525.57	1779.0709
525.82	1804.9803
526.07	1819.8907
526.32	1575.3889
526.57	1548.5264
526.82	1616.8381
527.07	1374.4199
527.32	1693.7902
527.57	1690.9312
527.82	1915.0347
528.07	1766.1432
528.32	1690.2393
528.57	1923.6335
528.82	1932.0576
529.07	1992.4054
529.32	1828.2969
529.57	1841.294
529.82	1621.8708
530.07	1869.5598
530.32	1855.2466
530.57	1961.5947
530.82	1859.3953
531.07	1940.5702
531.32	1927.3137
531.57	1763.571
531.82	1918.4785
532.07	1910.6431
532.32	1744.8011
532.57	1804.3281
532.82	1326.0939
533.07	1873.7908
533.32	1584.6583
533.57	1849.8086
533.82	1752.8755
534.07	1676.9175
534.32	1932.6251
534.57	1780.5055
534.82	1804.8538
535.07	1890.2052
535.32	1868.9419
535.57	1953.5444
535.82	1947.7336
536.07	1932.7041
536.32	1911.4124
536.57	1764.1128
536.82	1829.2036
537.07	1459.8903
537.32	1899.142
537.57	1959.2198
537.82	1872.1454
538.07	1852.7819
538.32	1732.054
538.57	1958.5713
538.82	1868.2075
539.07	1825.281
539.32	1832.3713
539.57	1811.577
539.82	1655.1633
540.07	1783.3898
540.32	1684.6091
540.57	1500.0435
540.82	1843.655
541.07	1648.4465
541.32	1841.1243
541.57	1783.221
541.82	1853.5826
542.07	1827.3505
542.32	1771.6572
542.57	1869.6775
542.82	1881.0728
543.07	1654.2439
543.32	1728.6671
543.57	1670.132
543.82	1922.1344
544.07	1904.9612
544.32	1916.6298
544.57	1609.032
544.82	1814.035
545.07	1931.8679
545.32	1866.3878
545.57	1644.9382
545.82	1900.7651
546.07	1878.3507
546.32	1701.1179
546.57	1903.8435
546.82	1888.0707
547.07	1877.9352
547.32	1807.6809
547.57	1626.1521
547.82	1782.0741
548.07	1827.2627
548.32	1884.6819
548.57	1925.9363
548.82	1655.6593
549.07	1861.0833
549.32	1762.1074
549.57	1854.5671
549.82	1780.4515
550.07	1802.4382
550.32	1831.2145
550.57	1721.0574
550.82	1881.1833
551.07	1831.6692
551.32	1678.0178
551.57	1843.571
551.82	1884.6124
552.07	1845.4441
552.32	1853.867
552.57	1771.6182
552.82	1657.1697
553.07	1872.7449
553.32	1828.6937
553.57	1774.7491
553.82	1885.449
554.07	1905.8485
554.32	1857.7196
554.57	1862.346
554.82	1881.0427
555.07	1873.1622
555.32	1811.5071
555.57	1783.7031
555.82	1830.6174
556.07	1822.596
556.32	1701.0942
556.57	1807.656
556.82	1807.0453
557.07	1763.8105
557.32	1695.5315
557.57	1747.1278
557.82	1843.3425
558.07	1844.6705
558.32	1762.4133
558.57	1681.162
558.82	1625.2277
559.07	1783.0365
559.32	1708.3643
559.57	1762.1141
559.82	1664.2783
560.07	1698.8687
560.32	1710.1221
560.57	1866.5038
560.82	1852.1533
561.07	1862.7598
561.32	1866.7931
561.57	1594.3796
561.82	1797.5508
562.07	1802.6482
562.32	1828.1239
562.57	1737.4767
562.82	1826.6869
563.07	1862.4391
563.32	1807.9799
563.57	1834.0502
563.82	1792.5886
564.07	1763.9409
564.32	1782.8248
564.57	1825.0408
564.82	1829.3735
565.07	1762.6033
565.32	1808.5842
565.57	1710.3909
565.82	1595.5824
566.07	1781.1335
566.32	1718.4778
566.57	1788.5312
566.82	1771.4991
567.07	1792.7861
567.32	1856.3
567.57	1805.8055
567.82	1796.199
568.07	1849.6072
568.32	1679.4314
568.57	1742.837
568.82	1769.1394
569.07	1780.67
569.32	1826.2029
569.57	1810.6694
569.82	1801.4226
570.07	1732.7814
570.32	1780.1902
570.57	1744.1185
570.82	1607.1141
571.07	1628.6296
571.32	1794.9108
571.57	1791.8651
571.82	1788.8318
572.07	1822.7477
572.32	1840.5231
572.57	1844.5188
572.82	1801.8407
573.07	1799.234
573.32	1835.1118
573.57	1837.0106
573.82	1826.5493
574.07	1810.8062
574.32	1807.1523
574.57	1835.2891
574.82	1704.8755
575.07	1827.4873
575.32	1632.3608
575.57	1757.617
575.82	1809.1912
576.07	1751.5521
576.32	1726.9939
576.57	1834.6284
576.82	1822.6965
577.07	1814.0015
577.32	1783.8818
577.57	1789.6185
577.82	1821.7699
578.07	1737.8644
578.32	1731.1273
578.57	1694.3976
578.82	1771.5583
579.07	1737.8525
579.32	1774.3257
579.57	1816.3423
579.82	1763.7501
580.07	1815.0371
580.32	1775.5315
580.57	1736.7656
580.82	1762.471
581.07	1798.2765
581.32	1796.6053
581.57	1730.8308
581.82	1812.9503
582.07	1801.8
582.32	1799.9402
582.57	1806.4187
582.82	1797.2222
583.07	1756.2947
583.32	1800.0842
583.57	1764.8391
583.82	1777.0161
584.07	1792.0288
584.32	1802.5536
584.57	1791.7251
584.82	1743.511
585.07	1792.0745
585.32	1683.739
585.57	1750.4055
585.82	1638.9927
586.07	1729.1545
586.32	1710.7781
586.57	1722.628
586.82	1738.4552
587.07	1789.1725
587.32	1772.1752
587.57	1787.6106
587.82	1770.5084
588.07	1752.9193
588.32	1733.9473
588.57	1775.0178
588.82	1703.3726
589.07	1337.1593
589.32	1687.2252
589.57	1430.0144
589.82	1712.0613
590.07	1773.5032
590.32	1741.2349
590.57	1741.5151
590.82	1775.7257
591.07	1768.157
591.32	1663.6858
591.57	1709.0037
591.82	1748.8104
592.07	1766.1853
592.32	1728.5469
592.57	1770.1528
592.82	1706.9452
593.07	1638.8215
593.32	1754.1809
593.57	1687.9785
593.82	1754.0465
594.07	1727.5239
594.32	1740.8518
594.57	1761.7771
594.82	1672.4468
595.07	1755.9071
595.32	1677.6055
595.57	1720.5651
595.82	1741.6687
596.07	1740.4551
596.32	1749.6797
596.57	1721.3081
596.82	1748.7332
597.07	1748.4192
597.32	1753.6826
597.57	1634.9633
597.82	1714.2194
598.07	1732.3444
598.32	1713.676
598.57	1662.9661
598.82	1685.5637
599.07	1703.0869
599.32	1734.7169
599.57	1712.3103
599.82	1703.8715
600.07	1729.0648
600.32	1662.9482
600.57	1714.9965
600.82	1604.0114
601.07	1729.4412
601.32	1634.3867
601.57	1662.8281
601.82	1721.2938
602.07	1608.3397
602.32	1637.7192
602.57	1721.6636
602.82	1652.7156
603.07	1651.6156
603.32	1723.9625
603.57	1725.8284
603.82	1726.2562
604.07	1715.9158
604.32	1720.7745
604.57	1716.1304
604.82	1722.543
605.07	1719.78
605.32	1686.212
605.57	1636.6857
605.82	1714.5721
606.07	1712.3091
606.32	1675.9622
606.57	1621.8934
606.82	1715.5913
607.07	1708.4209
607.32	1718.4667
607.57	1709.947
607.82	1632.3638
608.07	1681.5101
608.32	1671.1338
608.57	1643.3136
608.82	1695.864
609.07	1654.8953
609.32	1650.403
609.57	1688.8135
609.82	1690.0063
610.07	1693.4047
610.32	1494.9266
610.57	1677.5691
610.82	1619.978
611.07	1682.5774
611.32	1673.4801
611.57	1660.0864
611.82	1692.1754
612.07	1651.6592
612.32	1552.2258
612.57	1633.9794
612.82	1656.2864
613.07	1583.8938
613.32	1686.616
613.57	1562.1846
613.82	1517.9177
614.07	1599.5298
614.32	1632.3131
614.57	1617.905
614.82	1621.8553
615.07	1647.5764
615.32	1651.739
615.57	1571.2627
615.82	1567.475
616.07	1581.7731
616.32	1455.9059
616.57	1547.4219
616.82	1612.9698
617.07	1543.5756
617.32	1628.1443
617.57	1603.6351
617.82	1654.9109
618.07	1635.1863
618.32	1669.5265
618.57	1651.0369
618.82	1626.2622
619.07	1500.19
619.32	1662.3411
619.57	1634.5421
619.82	1655.3696
620.07	1611.9934
620.32	1668.4521
620.57	1655.8398
620.82	1644.7413
621.07	1661.8016
621.32	1579.0554
621.57	1565.9235
621.82	1589.0264
622.07	1613.7457
622.32	1636.8878
622.57	1629.9913
622.82	1634.2592
623.07	1532.2296
623.32	1588.5448
623.57	1652.0253
623.82	1539.6953
624.07	1606.5667
624.32	1538.0994
624.57	1503.4117
624.82	1601.587
625.07	1625.0018
625.32	1433.489
625.57	1552.6733
625.82	1544.6545
626.07	1600.3708
626.32	1636.6456
626.57	1563.7029
626.82	1603.1858
627.07	1592.9152
627.32	1627.1172
627.57	1567.2986
627.82	1523.8804
628.07	1541.1345
628.32	1563.6309
628.57	1585.9421
628.82	1617.2966
629.07	1571.2373
629.32	1558.7751
629.57	1602.4038
629.82	1579.0833
630.07	1527.7056
630.32	1558.8035
630.57	1611.3368
630.82	1622.0289
631.07	1596.7188
631.32	1618.103
631.57	1432.8401
631.82	1485.7449
632.07	1601.3633
632.32	1550.0366
632.57	1610.6572
632.82	1597.886
633.07	1592.9622
633.32	1606.2039
633.57	1466.1472
633.82	1571.1221
634.07	1615.3655
634.32	1557.6161
634.57	1611.3469
634.82	1578.0044
635.07	1601.2086
635.32	1588.2815
635.57	1543.589
635.82	1551.0317
636.07	1579.591
636.32	1522.1215
636.57	1567.1693
636.82	1591.3512
637.07	1559.1017
637.32	1591.1671
637.57	1593.6388
637.82	1579.1108
638.07	1546.1501
638.32	1591.1451
638.57	1549.3976
638.82	1595.4321
639.07	1580.6652
639.32	1482.8359
639.57	1582.9766
639.82	1572.553
640.07	1419.2657
640.32	1588.9464
640.57	1589.8933
640.82	1498.2529
641.07	1492.4562
641.32	1561.223
641.57	1527.2988
641.82	1557.7675
642.07	1430.5623
642.32	1573.2465
642.57	1571.0837
642.82	1578.8125
643.07	1490.6936
643.32	1547.3339
643.57	1568.3605
643.82	1434.1951
644.07	1561.4714
644.32	1559.8103
644.57	1571.3789
644.82	1570.6678
645.07	1478.939
645.32	1569.8774
645.57	1474.4785
645.82	1543.0042
646.07	1545.4731
646.32	1400.4661
646.57	1563.1565
646.82	1519.8115
647.07	1499.7048
647.32	1556.3916
647.57	1488.9662
647.82	1552.4656
648.07	1551.1932
648.32	1512.0066
648.57	1557.9912
648.82	1555.6409
649.07	1524.6934
649.32	1439.143
649.57	1303.7913
649.82	1495.6215
650.07	1488.7303
650.32	1493.5525
650.57	1550.547
650.82	1539.4165
651.07	1536.1558
651.32	1541.7556
651.57	1513.6205
651.82	1506.9094
652.07	1539.7548
652.32	1538.7853
652.57	1523.8147
652.82	1522.94
653.07	1532.145
653.32	1505.8379
653.57	1529.8086
653.82	1493.4653
654.07	1519.5476
654.32	1516.5198
654.57	1432.3683
654.82	1491.018
655.07	1468.8549
655.32	1456.6346
655.57	1395.321
655.82	1375.3638
656.07	1209.2191
656.32	883.70337
656.57	1291.1135
656.82	1396.7333
657.07	1439.186
657.32	1443.2228
657.57	1447.8203
657.82	1497.3567
658.07	1490.8953
658.32	1500.2668
658.57	1482.5402
658.82	1505.2292
659.07	1513.5023
659.32	1376.7612
659.57	1499.4862
659.82	1500.9364
660.07	1518.7867
660.32	1512.7008
660.57	1476.7279
660.82	1463.0577
661.07	1496.2996
661.32	1507.9099
661.57	1513.8887
661.82	1508.7263
662.07	1511.6543
662.32	1493.5618
662.57	1494.3737
662.82	1500.136
663.07	1470.4982
663.32	1397.4026
663.57	1489.5437
663.82	1505.3248
664.07	1470.8624
664.32	1454.652
664.57	1501.4154
664.82	1496.7056
665.07	1504.9244
665.32	1490.7067
665.57	1492.2258
665.82	1499.8651
666.07	1495.0571
666.32	1416.6576
666.57	1472.7655
666.82	1484.2994
667.07	1495.4282
667.32	1493.4846
667.57	1495.0294
667.82	1399.3987
668.07	1487.4279
668.32	1485.7325
668.57	1494.2535
668.82	1483.4302
669.07	1493.1542
669.32	1482.2634
669.57	1439.1643
669.82	1439.641
670.07	1488.5195
670.32	1463.4722
670.57	1462.9792
670.82	1475.3132
671.07	1459.9224
671.32	1428.5225
671.57	1456.6687
671.82	1413.4956
672.07	1453.5869
672.32	1470.0751
672.57	1438.4531
672.82	1476.7039
673.07	1452.2566
673.32	1454.1343
673.57	1474.062
673.82	1462.2114
674.07	1455.6228
674.32	1453.5945
674.57	1462.8208
674.82	1455.1411
675.07	1421.7559
675.32	1432.9595
675.57	1466.1189
675.82	1456.7393
676.07	1463.0515
676.32	1456.2969
676.57	1438.8538
676.82	1414.3273
677.07	1431.1401
677.32	1431.7572
677.57	1452.4053
677.82	1446.3812
678.07	1454.7504
678.32	1434.2201
678.57	1424.8247
678.82	1433.4039
679.07	1449.5933
679.32	1434.8635
679.57	1428.6957
679.82	1424.9812
680.07	1425.4678
680.32	1436.53
680.57	1421.0021
680.82	1437.2744
681.07	1409.0776
681.32	1428.3167
681.57	1422.9224
681.82	1446.0496
682.07	1400.842
682.32	1442.3036
682.57	1442.2675
682.82	1403.7678
683.07	1415.4564
683.32	1436.387
683.57	1440.5037
683.82	1404.6116
684.07	1372.6272
684.32	1375.7362
684.57	1432.0957
684.82	1428.7151
685.07	1423.5585
685.32	1434.8735
685.57	1354.4532
685.82	1389.5966
686.07	1401.0454
686.32	1422.9474
686.57	1432.7393
686.82	1416.4822
687.07	1429.3214
687.32	1408.108
687.57	1420.7372
687.82	1429.4302
688.07	1406.3796
688.32	1385.0845
688.57	1405.1194
688.82	1403.7668
689.07	1421.9587
689.32	1421.9
689.57	1403.7058
689.82	1408.6237
690.07	1421.05
690.32	1419.5798
690.57	1398.4557
690.82	1415.2236
691.07	1401.5078
691.32	1407.9741
691.57	1336.5826
691.82	1402.1796
692.07	1390.6781
692.32	1388.7554
692.57	1378.6962
692.82	1406.5312
693.07	1401.8701
693.32	1379.8276
693.57	1389.7971
693.82	1401.8113
694.07	1406.6531
694.32	1392.8882
694.57	1348.5443
694.82	1384.0566
695.07	1367.8223
695.32	1389.905
695.57	1375.2683
695.82	1397.3752
696.07	1395.9015
696.32	1393.8005
696.57	1363.0159
696.82	1393.7877
697.07	1377.8937
697.32	1395.9719
697.57	1364.6655
697.82	1293.557
698.07	1358.9033
698.32	1393.1732
698.57	1387.072
698.82	1376.9458
699.07	1384.9387
699.32	1377.1853
699.57	1367.4658
699.82	1364.487
700.07	1330.5029
700.32	1354.093
700.57	1343.5339
700.82	1362.2719
701.07	1349.1836
701.32	1341.4255
701.57	1306.3677
701.82	1346.3469
702.07	1379.3654
702.32	1293.7843
702.57	1341.0748
702.82	1331.6221
703.07	1357.8933
703.32	1370.7314
703.57	1346.4349
703.82	1307.4946
704.07	1372.8577
704.32	1374.2455
704.57	1356.3182
704.82	1372.6454
705.07	1371.3075
705.32	1328.5302
705.57	1354.0122
705.82	1363.8496
706.07	1335.1573
706.32	1353.664
706.57	1361.261
706.82	1302.7717
707.07	1340.2858
707.32	1345.9999
707.57	1360.8007
707.82	1361.3704
708.07	1351.2274
708.32	1330.7087
708.57	1288.7847
708.82	1357.1141
709.07	1310.6892
709.32	1347.5247
709.57	1344.3667
709.82	1341.2152
710.07	1345.4185
710.32	1351.1418
710.57	1343.4827
710.82	1313.3625
711.07	1319.5706
711.32	1300.0323
711.57	1315.6094
711.82	1328.2913
712.07	1327.55
712.32	1283.4712
712.57	1340.5142
712.82	1303.4242
713.07	1287.5135
713.32	1293.0712
713.57	1338.8872
713.82	1337.6118
714.07	1337.8752
714.32	1311.1194
714.57	1318.7549
714.82	1228.8481
715.07	1328.6997
715.32	1332.0132
715.57	1311.0093
715.82	1327.0835
716.07	1325.2588
716.32	1286.2878
716.57	1230.4792
716.82	1332.4338
717.07	1329.0149
717.32	1330.2463
717.57	1290.3461
717.82	1327.415
718.07	1246.8152
718.32	1307.9933
718.57	1291.2234
718.82	1199.1392
719.07	1285.0728
719.32	1255.661
719.57	1309.258
719.82	1296.5076
720.07	1319.3092
720.32	1276.9045
720.57	1316.3499
720.82	1181.6687
721.07	1311.4163
721.32	1296.1978
721.57	1298.0969
721.82	1308.4866
722.07	1279.0054
722.32	1251.8
722.57	1285.729
722.82	1293.7975
723.07	1312.8535
723.32	1313.4783
723.57	1284.883
723.82	1302.241
724.07	1295.686
724.32	1306.8955
724.57	1264.0497
724.82	1307.6503
725.07	1250.071
725.32	1296.6224
725.57	1296.3362
725.82	1295.6375
726.07	1240.4568
726.32	1296.1664
726.57	1295.0452
726.82	1300.0221
727.07	1297.0007
727.32	1279.5533
727.57	1268.2595
727.82	1278.1129
728.07	1295.8436
728.32	1254.3745
728.57	1251.2816
728.82	1191.3726
729.07	1233.6217
729.32	1243.1438
729.57	1269.7622
729.82	1271.1694
730.07	1274.4542
730.32	1274.7682
730.57	1265.2196
730.82	1235.2273
731.07	1237.271
731.32	1285.6573
731.57	1286.721
731.82	1276.0642
732.07	1250.7566
732.32	1284.0698
732.57	1203.6941
732.82	1259.5045
733.07	1260.127
733.32	1265.7535
733.57	1274.9957
733.82	1280.3767
734.07	1268.8774
734.32	1279.3606
734.57	1264.658
734.82	1275.7783
735.07	1248.1708
735.32	1269.4446
735.57	1225.6086
735.82	1266.0117
736.07	1255.052
736.32	1217.6687
736.57	1263.6254
736.82	1265.714
737.07	1266.4862
737.32	1259.5557
737.57	1255.7573
737.82	1273.825
738.07	1256.8687
738.32	1251.4827
738.57	1196.6166
738.82	1155.7273
739.07	1250.332
739.32	1227.7374
739.57	1256.5131
739.82	1257.1349
740.07	1186.0056
740.32	1265.2067
740.57	1215.4133
740.82	1185.0393
741.07	1202.0557
741.32	1252.451
741.57	1162.6608
741.82	1209.1399
742.07	1239.2819
742.32	1142.2001
742.57	1237.1616
742.82	1247.4382
743.07	1229.6986
743.32	1239.5221
743.57	1236.6375
743.82	1252.7598
744.07	1217.2924
744.32	1217.831
744.57	1174.0201
744.82	1217.8857
745.07	1235.1368
745.32	1223.913
745.57	1246.0879
745.82	1242.6199
746.07	1233.9717
746.32	1182.5355
746.57	1238.7985
746.82	1240.612
747.07	1240.3212
747.32	1211.7394
747.57	1225.1494
747.82	1237.2102
748.07	1208.1003
748.32	1209.3025
748.57	1238.4475
748.82	1232.1919
749.07	1195.2408
749.32	1224.1035
749.57	1154.9044
749.82	1221.3307
750.07	1226.86
750.32	1225.9689
750.57	1217.862
750.82	1217.1705
751.07	1142.0369
751.32	1205.1761
751.57	1219.1383
751.82	1228.4717
752.07	1230.0698
752.32	1179.7883
752.57	1181.1802
752.82	1226.6412
753.07	1194.2378
753.32	1223.0116
753.57	1224.1887
753.82	1216.3774
754.07	1218.8854
754.32	1217.7953
754.57	1220.7191
754.82	1196.4719
755.07	1219.4689
755.32	1201.0918
755.57	1168.9629
755.82	1212.5356
756.07	1170.6437
756.32	1212.8854
756.57	1213.4637
756.82	1174.3792
757.07	1213.5789
757.32	1180.2244
757.57	1211.1156
757.82	1201.6853
758.07	1210.6111
758.32	1162.4702
758.57	1163.3489
758.82	1200.2102
759.07	1203.1973
759.32	1202.7141
759.57	1198.3411
759.82	1198.4382
760.07	1189.4142
760.32	1176.4595
760.57	1187.7037
760.82	1205.9922
761.07	1185.9717
761.32	1204.188
761.57	1173.5781
761.82	1091.1315
762.07	1171.8503
762.32	1197.5364
762.57	1199.2402
762.82	1198.2402
763.07	1194.467
763.32	1196.2142
763.57	1196.7109
763.82	1195.434
764.07	1186.5896
764.32	1193.2192
764.57	1194.8882
764.82	1187.8357
765.07	1192.0009
765.32	1173.464
765.57	1155.5753
765.82	1080.6361
766.07	1119.6063
766.32	1125.9717
766.57	1102.1356
766.82	1173.0323
767.07	1174.8558
767.32	1182.1895
767.57	1185.6743
767.82	1182.1162
768.07	1149.6167
768.32	1183.0299
768.57	1177.8921
768.82	1168.2632
769.07	1126.2328
769.32	1176.1335
769.57	1172.5646
769.82	1113.7666
770.07	1176.2179
770.32	1176.2648
770.57	1175.2723
770.82	1164.6201
771.07	1104.6617
771.32	1133.3275
771.57	1173.5941
771.82	1167.6996
772.07	1165.8524
772.32	1105.5067
772.57	1166.7382
772.82	1130.0524
773.07	1169.2268
773.32	1164.5598
773.57	1167.3732
773.82	1167.6116
774.07	1165.5298
774.32	1133.1371
774.57	1107.8364
774.82	1069.9291
775.07	1144.6538
775.32	1162.3179
775.57	1157.9924
775.82	1152.1184
776.07	1156.8541
776.32	1163.0898
776.57	1158.007
776.82	1161.4485
777.07	1141.2208
777.32	1116.9924
777.57	1135.2689
777.82	1157.4352
778.07	1099.5176
778.32	1156.7225
778.57	1155.6306
778.82	1119.0972
779.07	1153.3997
779.32	1151.791
779.57	1153.7604
779.82	1099.6948
780.07	1138.633
780.32	1149.043
780.57	1148.9272
780.82	1129.939
781.07	1108.7288
781.32	1146.9258
781.57	1143.2383
781.82	1147.884
782.07	1135.5312
782.32	1146.2502
782.57	1117.8763
782.82	1145.07
783.07	1140.6301
783.32	1069.6672
783.57	1090.1106
783.82	1139.2961
784.07	1130.6445
784.32	1135.6292
784.57	1133.0817
784.82	1133.3967
785.07	1096.6741
785.32	1133.7148
785.57	1123.5671
785.82	1136.9556
786.07	1122.6028
786.32	1130.8379
786.57	1130.7878
786.82	1132.9272
787.07	1128.0513
787.32	1127.9702
787.57	1126.2682
787.82	1114.5631
788.07	1102.6731
788.32	1125.0557
788.57	1126.552
788.82	1121.9996
789.07	1121.8883
789.32	1119.9608
789.57	1103.7285
789.82	1116.2977
790.07	1099.536
790.32	1114.9819
790.57	1113.2358
790.82	1114.5406
791.07	1111.6844
791.32	1070.1709
791.57	1109.9568
791.82	1059.102
792.07	1115.57
792.32	1103.402
792.57	1105.7007
792.82	1110.1716
793.07	1069.6798
793.32	1062.4663
793.57	1109.9114
793.82	1038.3536
794.07	1085.6733
794.32	1057.5349
794.57	1036.6804
794.82	1099.6477
795.07	1100.4417
795.32	1103.9229
795.57	1090.9865
795.82	1096.4746
796.07	1102.6407
796.32	1101.9513
796.57	1103.3708
796.82	1102.6112
797.07	1093.1877
797.32	1100.4005
797.57	1089.6637
797.82	1091.2656
798.07	1098.5173
798.32	1103.1931
798.57	1097.1006
798.82	1086.6182
799.07	1100.216
799.32	1095.7556
799.57	1080.2697
799.82	1032.6935
800.07	1093.2173
800.32	1078.4016
800.57	1093.3458
800.82	1080.5787
801.07	1091.6538
801.32	1089.7727
801.57	1091.6025
801.82	1090.5494
802.07	1085.4551
802.32	1090.7114
802.57	1070.3486
802.82	1039.7197
803.07	1088.393
803.32	1089.0048
803.57	1052.7635
803.82	1087.5842
804.07	1083.5796
804.32	1076.1266
804.57	1024.4299
804.82	1043.1849
805.07	1066.2899
805.32	1059.4639
805.57	1077.435
805.82	1075.3458
806.07	1079.1879
806.32	1076.2285
806.57	1081.1035
806.82	1073.56
807.07	1048.8636
807.32	1054.0403
807.57	1052.068
807.82	1075.2156
808.07	1061.4528
808.32	1068.1487
808.57	1021.2979
808.82	1064.317
809.07	1062.6038
809.32	1028.2982
809.57	1050.771
809.82	1022.3019
810.07	1068.1555
810.32	1065.2378
810.57	1060.8881
810.82	1064.1105
811.07	1063.2219
811.32	1062.2609
811.57	1052.3958
811.82	1065.4218
812.07	1061.942
812.32	1066.54
812.57	1056.6246
812.82	1061.902
813.07	1056.1278
813.32	1062.1298
813.57	1058.1659
813.82	1056.3569
814.07	1053.2377
814.32	1051.8362
814.57	1057.0808
814.82	1046.6729
815.07	1034.3179
815.32	1053.6099
815.57	1049.1555
815.82	1051.2018
816.07	1049.654
816.32	1029.9175
816.57	1049.676
816.82	1048.073
817.07	1047.94
817.32	1046.4973
817.57	1049.8896
817.82	1036.2003
818.07	1045.6077
818.32	959.66425
818.57	1030.2483
818.82	1042.3462
819.07	1049.5192
819.32	1028.6512
819.57	933.8777
819.82	1008.0004
820.07	1022.0544
820.32	1039.089
820.57	1028.7545
820.82	1012.57135
821.07	1019.3042
821.32	972.9054
821.57	1025.7445
821.82	1041.5332
822.07	956.4221
822.32	1037.4236
822.57	1041.9875
822.82	1035.1185
823.07	994.64636
823.32	1006.3595
823.57	1025.3345
823.82	1003.91956
824.07	1037.9268
824.32	1032.1678
824.57	1037.2169
824.82	980.7287
825.07	1022.7247
825.32	1033.937
825.57	1021.06995
825.82	1029.2455
826.07	1029.8383
826.32	1023.23157
826.57	1025.7933
826.82	1026.7976
827.07	1022.0896
827.32	1020.56287
827.57	1016.6127
827.82	1023.305
828.07	1025.9022
828.32	1025.706
828.57	1023.992
828.82	1010.36566
829.07	1024.5957
829.32	993.709
829.57	1007.6611
829.82	1014.01245
830.07	1014.35785
830.32	1010.7244
830.57	969.92426
830.82	1011.454
831.07	983.9489
831.32	1012.9981
831.57	1018.86755
831.82	989.5802
832.07	1009.8845
832.32	1012.9918
832.57	996.16406
832.82	939.43536
833.07	982.2315
833.32	991.58014
833.57	970.47455
833.82	979.171
834.07	1008.2958
834.32	995.781
834.57	954.78143
834.82	992.5519
835.07	1009.79285
835.32	1000.6814
835.57	1006.8011
835.82	997.1395
836.07	998.3165
836.32	993.25446
836.57	974.60657
836.82	1005.66626
837.07	999.141
837.32	995.34357
837.57	1001.6249
837.82	987.4541
838.07	1005.2815
838.32	974.7796
838.57	995.2393
838.82	907.52386
839.07	994.1465
839.32	999.11066
839.57	992.1003
839.82	984.71857
840.07	969.541
840.32	989.3391
840.57	996.0281
840.82	994.5676
841.07	994.48755
841.32	973.79
841.57	994.511
841.82	954.99646
842.07	986.1892
842.32	966.336
842.57	964.607
842.82	989.8401
843.07	990.6964
843.32	976.3281
843.57	925.619
843.82	980.177
844.07	951.03125
844.32	975.2573
844.57	945.95544
844.82	986.598
845.07	978.7896
845.32	984.61035
845.57	981.8006
845.82	975.17114
846.07	980.2505
846.32	976.6397
846.57	968.88544
846.82	901.49994
847.07	959.7538
847.32	975.54114
847.57	977.92365
847.82	969.74335
848.07	967.8299
848.32	969.6046
848.57	971.493
848.82	971.4324
849.07	972.3047
849.32	955.1758
849.57	904.4591
849.82	644.72174
850.07	913.85095
850.32	938.38794
850.57	953.51855
850.82	966.1689
851.07	964.93774
851.32	904.1416
851.57	922.7823
851.82	952.6684
852.07	965.51294
852.32	965.5523
852.57	935.5436
852.82	929.121
853.07	948.18945
853.32	937.5369
853.57	899.8828
853.82	846.05804
854.07	644.0836
854.32	576.4345
854.57	828.4186
854.82	897.81506
855.07	926.9514
855.32	943.4439
855.57	916.3272
855.82	952.77106
856.07	952.8617
856.32	949.86755
856.57	952.00555
856.82	950.61945
857.07	951.47266
857.32	955.16266
857.57	948.60876
857.82	957.89526
858.07	958.3582
858.32	913.30347
858.57	948.38
858.82	946.99884
859.07	947.1973
859.32	933.88763
859.57	925.6924
859.82	907.5934
860.07	936.5056
860.32	921.44507
860.57	934.8687
860.82	944.014
861.07	897.4506
861.32	941.206
861.57	931.1203
861.82	946.2768
862.07	916.81104
862.32	950.7126
862.57	934.7299
862.82	948.2523
863.07	940.03595
863.32	940.1788
863.57	934.0012
863.82	922.27405
864.07	943.2395
864.32	917.82074
864.57	935.45105
864.82	895.9845
865.07	932.07574
865.32	919.4074
865.57	906.3989
865.82	848.23724
866.07	648.09875
866.32	572.1786
866.57	826.9003
866.82	885.71387
867.07	901.9854
867.32	904.3024
867.57	866.5045
867.82	930.4624
868.07	876.95764
868.32	923.3446
868.57	920.5307
868.82	822.931
869.07	913.7841
869.32	911.70496
869.57	926.7465
869.82	886.0894
870.07	918.76636
870.32	921.8617
870.57	931.18536
870.82	931.1809
871.07	880.9165
871.32	889.2311
871.57	930.61597
871.82	897.6864
872.07	921.81934
872.32	928.87384
872.57	929.1322
872.82	893.8427
873.07	927.2436
873.32	925.93445
873.57	834.07336
873.82	917.9157
874.07	912.2041
874.32	884.651
874.57	907.46497
874.82	887.4907
875.07	865.1869
875.32	869.0632
875.57	906.5779
875.82	867.1073
876.07	914.7675
876.32	880.3314
876.57	908.4862
876.82	916.0165
877.07	915.45135
877.32	853.8168
877.57	904.781
877.82	916.70154
878.07	918.12964
878.32	915.4358
878.57	911.8967
878.82	906.6242
879.07	880.91156
879.32	871.7365
879.57	909.0403
879.82	915.23004
880.07	914.6784
880.32	911.19946
880.57	758.70654
880.82	842.8663
881.07	908.1567
881.32	910.08484
881.57	909.6363
881.82	905.94275
882.07	895.3295
882.32	831.351
882.57	905.0805
882.82	905.64954
883.07	909.73975
883.32	894.27856
883.57	893.05066
883.82	856.91437
884.07	880.4833
884.32	898.73206
884.57	879.6438
884.82	898.6488
885.07	892.7229
885.32	894.4357
885.57	889.8928
885.82	879.9414
886.07	860.53564
886.32	813.38525
886.57	842.0316
886.82	855.1354
887.07	888.65717
887.32	887.79236
887.57	879.4825
887.82	875.82086
888.07	892.3746
888.32	881.7156
888.57	897.1881
888.82	896.8408
889.07	892.1157
889.32	871.4587
889.57	893.9674
889.82	885.7875
890.07	897.10297
890.32	892.8384
890.57	893.1731
890.82	887.2743
891.07	891.7809
891.32	865.228
891.57	892.3004
891.82	889.6463
892.07	863.1536
892.32	865.6465
892.57	879.93164
892.82	831.08826
893.07	880.6878
893.32	886.4008
893.57	890.16077
893.82	888.4716
894.07	886.73883
894.32	877.3239
894.57	853.3689
894.82	857.96747
895.07	884.56415
895.32	885.96606
895.57	877.22345
895.82	884.6404
896.07	878.30414
896.32	874.19495
896.57	870.10925
896.82	857.4543
897.07	881.93835
897.32	871.5726
897.57	851.14124
897.82	868.98566
898.07	871.1923
898.32	874.16473
898.57	866.3032
898.82	864.23413
899.07	868.8821
899.32	871.5789
899.57	864.7718
899.82	851.33606
900.07	812.5763
900.32	864.7723
900.57	856.22675
900.82	826.0432
901.07	816.5559
901.32	779.2954
901.57	791.8061
901.82	820.549
902.07	819.7146
902.32	838.8956
902.57	860.39
902.82	859.13245
903.07	861.4393
903.32	865.77454
903.57	859.0347
903.82	863.5999
904.07	866.8745
904.32	864.9254
904.57	865.64
904.82	864.6536
905.07	854.2102
905.32	856.61896
905.57	864.1824
905.82	854.74976
906.07	813.1987
906.32	807.933
906.57	861.63824
906.82	856.25183
907.07	853.24554
907.32	858.65656
907.57	857.6185
907.82	818.1515
908.07	826.6564
908.32	855.52954
908.57	857.0637
908.82	756.5821
909.07	845.7663
909.32	831.7496
909.57	792.35175
909.82	833.8252
910.07	844.1971
910.32	833.676
910.57	838.0388
910.82	848.5055
911.07	814.1477
911.32	827.6626
911.57	849.7693
911.82	827.15826
912.07	851.13367
912.32	837.0245
912.57	849.1748
912.82	851.73987
913.07	847.19214
913.32	847.2818
913.57	843.93866
913.82	849.3812
914.07	837.11206
914.32	842.7518
914.57	836.55066
914.82	820.1889
915.07	840.9291
915.32	841.47156
915.57	839.2827
915.82	841.44354
916.07	840.3999
916.32	833.60693
916.57	831.7422
916.82	830.3552
917.07	832.1875
917.32	813.5208
917.57	832.19574
917.82	830.9874
918.07	829.13806
918.32	833.118
918.57	828.86444
918.82	828.71515
919.07	830.75684
919.32	827.74164
919.57	831.15894
919.82	820.00964
920.07	825.33093
920.32	826.93567
920.57	815.1425
920.82	816.59296
921.07	796.2993
921.32	767.33514
921.57	814.719
921.82	766.2805
922.07	813.0213
922.32	802.8734
922.57	780.77686
922.82	707.26434
923.07	753.1775
923.32	793.3867
923.57	801.84814
923.82	770.36914
924.07	813.65546
924.32	789.56573
924.57	796.3543
924.82	808.0654
925.07	821.83954
925.32	800.4888
925.57	742.3168
925.82	773.1611
926.07	813.15735
926.32	793.8529
926.57	811.1523
926.82	815.83984
927.07	808.4386
927.32	817.9397
927.57	821.34894
927.82	812.8397
928.07	800.2198
928.32	820.54285
928.57	816.7284
928.82	798.5338
929.07	791.3689
929.32	808.8453
929.57	798.93884
929.82	810.0589
930.07	808.02765
930.32	812.75586
930.57	804.19366
930.82	809.783
931.07	803.96094
931.32	813.9676
931.57	809.17786
931.82	788.21747
932.07	811.1079
932.32	801.1323
932.57	802.0592
932.82	795.702
933.07	813.59503
933.32	800.4432
933.57	802.0993
933.82	807.3786
934.07	809.08057
934.32	805.72296
934.57	796.456
934.82	806.56683
935.07	786.0327
935.32	806.92267
935.57	792.21387
935.82	787.1858
936.07	800.01965
936.32	786.74347
936.57	792.6938
936.82	793.526
937.07	797.3785
937.32	797.0825
937.57	797.5112
937.82	800.85254
938.07	790.069
938.32	793.8836
938.57	795.45483
938.82	791.98193
939.07	792.64233
939.32	784.9438
939.57	775.2997
939.82	789.55817
940.07	781.1362
940.32	789.66785
940.57	727.0273
940.82	789.14496
941.07	775.4797
941.32	716.07166
941.57	718.01965
941.82	785.6095
942.07	760.66064
942.32	788.1601
942.57	785.11224
942.82	790.0424
943.07	765.5317
943.32	755.4123
943.57	786.496
943.82	728.4138
944.07	786.51624
944.32	772.8993
944.57	772.6743
944.82	767.96375
945.07	787.6256
945.32	772.4585
945.57	777.5669
945.82	775.0591
946.07	789.33105
946.32	769.95056
946.57	782.3929
946.82	784.70557
947.07	779.1613
947.32	782.8317
947.57	786.123
947.82	776.10266
948.07	769.63135
948.32	783.57495
948.57	769.03876
948.82	774.0632
949.07	783.6489
949.32	776.0243
949.57	772.8722
949.82	781.0188
950.07	773.03357
950.32	770.1802
950.57	763.16504
950.82	774.7631
951.07	768.98315
951.32	766.84393
951.57	778.1044
951.82	772.6313
952.07	761.1289
952.32	771.97723
952.57	763.40015
952.82	764.97833
953.07	758.20886
953.32	768.39087
953.57	742.569
953.82	757.13916
954.07	741.60187
954.32	718.1916
954.57	649.9408
954.82	711.8912
955.07	737.44196
955.32	743.3297
955.57	747.3221
955.82	748.6887
956.07	757.8844
956.32	758.99915
956.57	760.2444
956.82	765.437
957.07	738.28284
957.32	749.72107
957.57	753.19995
957.82	762.4426
958.07	764.68713
958.32	761.95795
958.57	755.33417
958.82	752.8948
959.07	768.35376
959.32	759.2823
959.57	751.75415
959.82	758.966
960.07	753.6547
960.32	725.81885
960.57	739.0988
960.82	743.9734
961.07	762.8016
961.32	762.92065
961.57	758.71893
961.82	758.032
962.07	720.783
962.32	755.4925
962.57	719.5954
962.82	758.8022
963.07	759.13995
963.32	737.21765
963.57	754.31274
963.82	714.7462
964.07	756.8638
964.32	753.86444
964.57	751.514
964.82	742.5766
965.07	746.64355
965.32	733.3408
965.57	748.7147
965.82	691.0227
966.07	735.2129
966.32	746.8851
966.57	752.1743
966.82	752.5445
967.07	742.1343
967.32	743.2983
967.57	720.58057
967.82	750.5995
968.07	742.11633
968.32	748.291
968.57	749.2083
968.82	728.55475
969.07	734.6051
969.32	743.50885
969.57	746.81396
969.82	746.83264
970.07	741.19745
970.32	744.3869
970.57	726.48145
970.82	747.4604
971.07	746.3754
971.32	745.3015
971.57	741.2195
971.82	740.65485
972.07	744.22754
972.32	740.30884
972.57	740.3939
972.82	726.8082
973.07	736.3898
973.32	743.7958
973.57	727.7102
973.82	702.98096
974.07	741.79675
974.32	722.5542
974.57	726.47314
974.82	726.92737
975.07	738.36176
975.32	722.1015
975.57	739.31445
975.82	731.25397
976.07	737.4677
976.32	711.29877
976.57	737.0365
976.82	728.6905
977.07	722.86914
977.32	735.4804
977.57	736.19507
977.82	734.3342
978.07	731.5848
978.32	715.145
978.57	721.5099
978.82	714.5901
979.07	731.9266
979.32	725.44196
979.57	730.3312
979.82	730.3861
980.07	710.0947
980.32	732.8427
980.57	731.86426
980.82	726.536
981.07	727.5525
981.32	724.40784
981.57	727.2904
981.82	729.27527
982.07	716.13477
982.32	727.57965
982.57	722.94275
982.82	724.31213
983.07	724.91223
983.32	712.3601
983.57	720.79895
983.82	720.39496
984.07	723.32434
984.32	717.0404
984.57	720.51843
984.82	714.7858
985.07	719.3679
985.32	722.0083
985.57	714.1806
985.82	721.76276
986.07	702.1546
986.32	722.514
986.57	722.6508
986.82	717.457
987.07	716.4169
987.32	712.85406
987.57	722.1084
987.82	721.3755
988.07	711.89453
988.32	713.3594
988.57	717.8091
988.82	692.50366
989.07	692.131
989.32	709.56213
989.57	717.79126
989.82	697.4612
990.07	706.9629
990.32	712.702
990.57	701.5057
990.82	712.83264
991.07	711.70996
991.32	701.38824
991.57	710.7551
991.82	716.56555
992.07	708.43677
992.32	709.89844
992.57	712.3887
992.82	704.9154
993.07	700.85297
993.32	707.9648
993.57	711.93665
993.82	707.59717
994.07	685.573
994.32	700.44403
994.57	709.8999
994.82	704.97766
995.07	700.8363
995.32	705.7978
995.57	700.9938
995.82	706.79047
996.07	703.10065
996.32	704.4562
996.57	705.4713
996.82	700.72394
997.07	692.384
997.32	697.3606
997.57	702.50885
997.82	702.8699
998.07	701.4961
998.32	702.7123
998.57	691.84314
998.82	704.38196
999.07	700.9454
999.32	690.1323
999.57	703.0055
999.82	693.9429
1000.07	696.8425
1000.32	699.8923
1000.57	692.51575
1000.82	685.3884
1001.07	688.7537
1001.32	700.79834
1001.57	699.0137
1001.82	698.2423
1002.07	694.80786
1002.32	697.38477
1002.57	686.35767
1002.82	692.0997
1003.07	687.5791
1003.32	689.4856
1003.57	670.9466
1003.82	683.1037
1004.07	679.80066
1004.32	673.01276
1004.57	655.7465
1004.82	591.93225
1005.07	603.2062
1005.32	657.33093
1005.57	668.59204
1005.82	670.6011
1006.07	674.0948
1006.32	675.6914
1006.57	658.1269
1006.82	678.54553
1007.07	689.2194
1007.32	687.2372
1007.57	679.1455
1007.82	686.54694
1008.07	687.2335
1008.32	683.7523
1008.57	681.11395
1008.82	686.29816
1009.07	684.1663
1009.32	681.8087
1009.57	687.45636
1009.82	675.45465
1010.07	676.6344
1010.32	670.462
1010.57	668.685
1010.82	686.07935
1011.07	685.27094
1011.32	680.6626
1011.57	683.1747
1011.82	683.51807
1012.07	678.99133
1012.32	659.39966
1012.57	679.8352
1012.82	683.17834
1013.07	682.26385
1013.32	681.7112
1013.57	678.8771
1013.82	678.66504
1014.07	681.5104
1014.32	677.54834
1014.57	639.21716
1014.82	672.0069
1015.07	677.0464
1015.32	673.6551
1015.57	666.23834
1015.82	678.33105
1016.07	664.2191
1016.32	647.5931
1016.57	678.2805
1016.82	671.51245
1017.07	674.0548
1017.32	672.11914
1017.57	677.25775
1017.82	672.05835
1018.07	673.4075
1018.32	640.13214
1018.57	659.21655
1018.82	668.8406
1019.07	673.6466
1019.32	645.9675
1019.57	669.40906
1019.82	661.8438
1020.07	672.15765
1020.32	665.0266
1020.57	670.88367
1020.82	662.9053
1021.07	669.6255
1021.32	650.40906
1021.57	637.412
1021.82	652.8159
1022.07	668.555
1022.32	663.5468
1022.57	662.7423
1022.82	663.8352
1023.07	668.1305
1023.32	665.3041
1023.57	661.8035
1023.82	656.84924
1024.0701	665.76874
1024.3201	665.36914
1024.5701	657.1463
1024.8201	666.32605
1025.0701	667.3438
1025.3201	664.878
1025.5701	666.3105
1025.8201	663.9869
1026.0701	661.6033
1026.3201	663.9332
1026.5701	660.9717
1026.8201	664.43024
1027.0701	652.0073
1027.3201	661.37476
1027.5701	663.7969
1027.8201	662.31775
1028.0701	662.96155
1028.3201	650.5287
1028.5701	662.8472
1028.8201	623.2498
1029.0701	660.72144
1029.3201	660.5694
1029.5701	658.6579
1029.8201	653.13135
1030.0701	655.6638
1030.3201	651.2948
1030.5701	659.02563
1030.8201	655.26404
1031.0701	659.1236
1031.3201	644.0928
1031.5701	657.5438
1031.8201	656.82996
1032.0701	653.2678
1032.3201	655.4876
1032.5701	654.477
1032.8201	620.7215
1033.0701	631.4125
1033.3201	648.2394
1033.5701	644.07874
1033.8201	655.0091
1034.0701	634.01227
1034.3201	619.11444
1034.5701	648.51404
1034.8201	642.9651
1035.0701	653.0926
1035.3201	644.1363
1035.5701	646.9586
1035.8201	648.2213
1036.0701	650.07623
1036.3201	646.0714
1036.5701	649.57227
1036.8201	650.7621
1037.0701	599.2846
1037.3201	635.28015
1037.5701	642.98285
1037.8201	632.2367
1038.0701	649.35486
1038.3201	647.9418
1038.5701	648.9753
1038.8201	644.5925
1039.0701	645.1489
1039.3201	645.98236
1039.5701	616.6018
1039.8201	642.04065
1040.0701	646.41907
1040.3201	642.4423
1040.5701	637.582
1040.8201	633.97565
1041.0701	643.7576
1041.3201	643.56335
1041.5701	638.7892
1041.8201	643.3617
1042.0701	643.73785
1042.3201	623.6153
1042.5701	622.6907
1042.8201	640.82166
1043.0701	641.52124
1043.3201	638.7051
1043.5701	633.9335
1043.8201	640.3022
1044.0701	639.2902
1044.3201	639.6359
1044.5701	640.1105
1044.8201	626.5424
1045.0701	637.4071
1045.3201	637.0852
1045.5701	586.4585
1045.8201	617.28656
1046.0701	620.03143
1046.3201	637.3322
1046.5701	635.633
1046.8201	622.75433
1047.0701	606.50195
1047.3201	635.0491
1047.5701	632.9493
1047.8201	626.5476
1048.0701	622.16016
1048.3201	632.3336
1048.5701	626.60486
1048.8201	633.675
1049.0701	632.8386
1049.3201	634.3291
1049.5701	627.1252
1049.8201	633.33215
1050.0701	622.2791
1050.3201	626.5602
1050.5701	625.23376
1050.8201	628.82715
1051.0701	622.8932
1051.3201	626.5911
1051.5701	630.8641
1051.8201	615.2925
1052.0701	626.1837
1052.3201	628.28284
1052.5701	627.8494
1052.8201	628.7606
1053.0701	616.01105
1053.3201	607.71265
1053.5701	627.6063
1053.8201	625.57275
1054.0701	620.9376
1054.3201	628.0624
1054.5701	625.7538
1054.8201	626.85645
1055.0701	622.86475
1055.3201	619.84454
1055.5701	624.2362
1055.8201	621.09033
1056.0701	624.3888
1056.3201	625.14703
1056.5701	620.6327
1056.8201	617.61273
1057.0701	615.92883
1057.3201	608.0419
1057.5701	616.8467
1057.8201	614.81287
1058.0701	612.20715
1058.3201	607.42255
1058.5701	539.9389
1058.8201	588.7197
1059.0701	618.6901
1059.3201	616.20306
1059.5701	611.5414
1059.8201	619.6385
1060.0701	619.4499
1060.3201	564.50586
1060.5701	603.8609
1060.8201	617.60095
1061.0701	616.14966
1061.3201	617.273
1061.5701	614.31305
1061.8201	615.38794
1062.0701	609.1009
1062.3201	615.92554
1062.5701	605.39484
1062.8201	576.2764
1063.0701	607.53
1063.3201	608.4002
1063.5701	614.43555
1063.8201	614.51733
1064.0701	614.5761
1064.3201	613.16156
1064.5701	614.10425
1064.8201	611.1735
1065.0701	612.4604
1065.3201	612.3124
1065.5701	612.7802
1065.8201	611.045
1066.0701	554.0298
1066.3201	610.52026
1066.5701	606.00684
1066.8201	605.87665
1067.0701	609.25714
1067.3201	602.39026
1067.5701	607.2609
1067.8201	607.62573
1068.0701	604.9949
1068.3201	553.19244
1068.5701	565.8292
1068.8201	599.1303
1069.0701	513.1484
1069.3201	565.07196
1069.5701	602.5153
1069.8201	600.07635
1070.0701	583.4325
1070.3201	592.35156
1070.5701	582.05707
1070.8201	565.7915
1071.0701	602.9305
1071.3201	605.2052
1071.5701	596.7583
1071.8201	576.9729
1072.0701	602.49664
1072.3201	604.0296
1072.5701	591.6684
1072.8201	551.9946
1073.0701	563.148
1073.3201	598.8163
1073.5701	602.6336
1073.8201	602.528
1074.0701	592.7758
1074.3201	599.3434
1074.5701	585.16895
1074.8201	561.65576
1075.0701	584.01404
1075.3201	575.57336
1075.5701	598.17395
1075.8201	599.6716
1076.0701	599.02234
1076.3201	598.0302
1076.5701	589.9787
1076.8201	588.4068
1077.0701	595.48206
1077.3201	596.9735
1077.5701	596.14935
1077.8201	598.0201
1078.0701	592.6385
1078.3201	574.9065
1078.5701	541.5498
1078.8201	580.8674
1079.0701	595.4693
1079.3201	586.77057
1079.5701	576.78864
1079.8201	588.58716
1080.0701	589.19293
1080.3201	586.1868
1080.5701	592.0387
1080.8201	581.0442
1081.0701	504.88214
1081.3201	582.131
1081.5701	591.21405
1081.8201	580.3489
1082.0701	588.3042
1082.3201	590.6005
1082.5701	565.24115
1082.8201	525.58136
1083.0701	581.7023
1083.3201	581.5133
1083.5701	577.08813
1083.8201	581.3834
1084.0701	587.2441
1084.3201	552.5828
1084.5701	577.7045
1084.8201	586.34937
1085.0701	585.7455
1085.3201	588.43506
1085.5701	585.4768
1085.8201	586.1207
1086.0701	584.90186
1086.3201	566.7603
1086.5701	585.3386
1086.8201	527.25397
1087.0701	525.6354
1087.3201	576.9307
1087.5701	583.3657
1087.8201	584.0264
1088.0701	577.914
1088.3201	554.4918
1088.5701	549.8211
1088.8201	580.9348
1089.0701	572.50714
1089.3201	578.58234
1089.5701	561.6652
1089.8201	581.4179
1090.0701	580.4605
1090.3201	580.45636
1090.5701	572.73193
1090.8201	579.0162
1091.0701	577.2145
1091.3201	565.2863
1091.5701	540.6997
1091.8201	571.04193
1092.0701	570.74426
1092.3201	571.1357
1092.5701	560.1503
1092.8201	556.687
1093.0701	553.2505
1093.3201	543.13684
1093.5701	520.9766
1093.8201	456.24515
1094.0701	523.2952
1094.3201	544.77167
1094.5701	554.4889
1094.8201	554.68854
1095.0701	557.81915
1095.3201	537.8538
1095.5701	565.48193
1095.8201	534.0052
1096.0701	568.6486
1096.3201	557.17505
1096.5701	513.0442
1096.8201	560.373
1097.0701	566.84796
1097.3201	563.0337
1097.5701	569.46185
1097.8201	527.4781
1098.0701	544.27576
1098.3201	542.8219
1098.5701	553.01263
1098.8201	561.7149
1099.0701	562.1865
1099.3201	568.1174
1099.5701	561.637
1099.8201	562.33093
1100.0701	565.45654
1100.3201	564.00494
1100.5701	560.3706
1100.8201	566.76733
1101.0701	560.8816
1101.3201	543.7622
1101.5701	557.819
1101.8201	512.307
1102.0701	556.31476
1102.3201	558.8593
1102.5701	562.7721
1102.8201	550.81934
1103.0701	561.63995
1103.3201	561.374
1103.5701	562.065
1103.8201	551.7889
1104.0701	557.70776
1104.3201	563.28516
1104.5701	550.91205
1104.8201	552.443
1105.0701	561.67786
1105.3201	557.3388
1105.5701	552.401
1105.8201	552.75616
1106.0701	559.81726
1106.3201	558.0977
1106.5701	559.59705
1106.8201	553.08905
1107.0701	560.2368
1107.3201	556.654
1107.5701	560.5567
1107.8201	552.6411
1108.0701	550.70685
1108.3201	557.53894
1108.5701	558.0885
1108.8201	556.2129
1109.0701	545.9887
1109.3201	557.81683
1109.5701	556.8822
1109.8201	548.73346
1110.0701	555.2561
1110.3201	551.78125
1110.5701	555.0205
1110.8201	553.33124
1111.0701	552.9247
1111.3201	550.6931
1111.5701	557.78516
1111.8201	553.1796
1112.0701	527.0477
1112.3201	551.4231
1112.5701	548.6483
1112.8201	553.63495
1113.0701	526.1108
1113.3201	542.7266
1113.5701	551.828
1113.8201	555.46704
1114.0701	549.5211
1114.3201	552.68115
1114.5701	537.1461
1114.8201	544.25824
1115.0701	554.4374
1115.3201	547.75806
1115.5701	553.47797
1115.8201	530.7531
1116.0701	549.35535
1116.3201	549.4976
1116.5701	552.7844
1116.8201	546.4659
1117.0701	542.3189
1117.3201	545.9104
1117.5701	548.5863
1117.8201	545.55524
1118.0701	545.54065
1118.3201	545.4068
1118.5701	534.09204
1118.8201	511.00336
1119.0701	535.57837
1119.3201	549.0971
1119.5701	517.01733
1119.8201	537.5623
1120.0701	535.6652
1120.3201	542.17816
1120.5701	540.6285
1120.8201	543.18414
1121.0701	543.7109
1121.3201	537.7532
1121.5701	545.81506
1121.8201	543.8336
1122.0701	542.6775
1122.3201	543.6754
1122.5701	544.3491
1122.8201	531.20325
1123.0701	543.2438
1123.3201	542.553
1123.5701	544.3801
1123.8201	541.1971
1124.0701	541.66876
1124.3201	530.88794
1124.5701	538.6353
1124.8201	542.9758
1125.0701	513.8077
1125.3201	499.1153
1125.5701	495.66705
1125.8201	539.4425
1126.0701	527.32043
1126.3201	539.4104
1126.5701	541.9969
1126.8201	537.51654
1127.0701	541.5442
1127.3201	538.09204
1127.5701	531.36115
1127.8201	530.85516
1128.0701	540.06354
1128.3201	535.4374
1128.5701	530.55554
1128.8201	531.57495
1129.0701	493.51474
1129.3201	532.2065
1129.5701	519.2284
1129.8201	513.8871
1130.0701	537.6791
1130.3201	529.64874
1130.5701	536.023
1130.8201	522.03424
1131.0701	509.13968
1131.3201	533.6815
1131.5701	527.54407
1131.8201	532.7912
1132.0701	526.3417
1132.3201	531.96387
1132.5701	535.4085
1132.8201	528.7997
1133.0701	498.84033
1133.3201	521.44135
1133.5701	528.0113
1133.8201	522.0716
1134.0701	531.4593
1134.3201	533.10925
1134.5701	528.98706
1134.8201	526.48413
1135.0701	529.4325
1135.3201	521.2028
1135.5701	519.40814
1135.8201	529.66907
1136.0701	526.4931
1136.3201	531.5715
1136.5701	531.0853
1136.8201	526.16815
1137.0701	528.35284
1137.3201	497.57083
1137.5701	526.30743
1137.8201	524.49866
1138.0701	493.31305
1138.3201	528.7468
1138.5701	519.9193
1138.8201	524.2651
1139.0701	499.66373
1139.3201	516.85565
1139.5701	524.16406
1139.8201	515.23065
1140.0701	514.9616
1140.3201	472.6095
1140.5701	514.24963
1140.8201	516.0459
1141.0701	519.2659
1141.3201	519.41187
1141.5701	521.923
1141.8201	521.866
1142.0701	519.7794
1142.3201	493.7773
1142.5701	521.8012
1142.8201	518.58295
1143.0701	521.9857
1143.3201	516.2737
1143.5701	516.37225
1143.8201	491.44586
1144.0701	517.19415
1144.3201	519.01373
1144.5701	506.66733
1144.8201	513.0797
1145.0701	521.0745
1145.3201	521.4162
1145.5701	516.1576
1145.8201	514.442
1146.0701	521.775
1146.3201	517.66675
1146.5701	519.2513
1146.8201	519.35767
1147.0701	514.5869
1147.3201	511.59744
1147.5701	515.478
1147.8201	516.875
1148.0701	513.1237
1148.3201	516.7919
1148.5701	504.10687
1148.8201	517.73083
1149.0701	515.4967
1149.3201	512.3127
1149.5701	515.84106
1149.8201	516.98914
1150.0701	515.2007
1150.3201	502.6355
1150.5701	516.44214
1150.8201	515.3668
1151.0701	511.2228
1151.3201	515.9398
1151.5701	510.7637
1151.8201	505.14313
1152.0701	514.50336
1152.3201	502.34045
1152.5701	510.6976
1152.8201	509.0881
1153.0701	512.21576
1153.3201	514.0812
1153.5701	511.9077
1153.8201	513.5634
1154.0701	503.66156
1154.3201	513.3013
1154.5701	513.3767
1154.8201	513.0313
1155.0701	510.48175
1155.3201	507.33615
1155.5701	511.68597
1155.8201	511.0852
1156.0701	508.87946
1156.3201	511.6907
1156.5701	506.2698
1156.8201	509.99435
1157.0701	510.03992
1157.3201	506.98367
1157.5701	506.9821
1157.8201	503.6408
1158.0701	507.84955
1158.3201	508.08444
1158.5701	503.7188
1158.8201	502.37927
1159.0701	494.3275
1159.3201	463.80096
1159.5701	501.95468
1159.8201	507.04736
1160.0701	495.0962
1160.3201	503.3814
1160.5701	505.06836
1160.8201	467.28723
1161.0701	459.6555
1161.3201	502.2061
1161.5701	496.9888
1161.8201	494.39203
1162.0701	502.40875
1162.3201	505.41583
1162.5701	502.31415
1162.8201	485.56366
1163.0701	503.2422
1163.3201	503.17755
1163.5701	504.17618
1163.8201	467.63034
1164.0701	488.9325
1164.3201	501.79236
1164.5701	502.8844
1164.8201	495.1416
1165.0701	501.5296
1165.3201	488.82602
1165.5701	496.92264
1165.8201	480.70065
1166.0701	483.38467
1166.3201	499.05643
1166.5701	498.49942
1166.8201	492.19794
1167.0701	479.70303
1167.3201	494.4192
1167.5701	499.01614
1167.8201	499.65735
1168.0701	496.46124
1168.3201	494.75427
1168.5701	498.81375
1168.8201	496.75217
1169.0701	446.31854
1169.3201	491.6037
1169.5701	493.4703
1169.8201	495.00027
1170.0701	486.35217
1170.3201	496.8243
1170.5701	497.2303
1170.8201	494.732
1171.0701	493.54163
1171.3201	496.23615
1171.5701	492.48602
1171.8201	496.59796
1172.0701	494.72284
1172.3201	490.65555
1172.5701	493.74414
1172.8201	493.89417
1173.0701	491.1317
1173.3201	494.01654
1173.5701	490.18652
1173.8201	489.913
1174.0701	488.95398
1174.3201	491.40927
1174.5701	491.37872
1174.8201	463.63434
1175.0701	485.1033
1175.3201	451.5538
1175.5701	455.19305
1175.8201	491.27148
1176.0701	491.31894
1176.3201	485.82495
1176.5701	489.09195
1176.8201	487.038
1177.0701	484.64343
1177.3201	468.12454
1177.5701	489.23672
1177.8201	476.84903
1178.0701	484.34644
1178.3201	449.02612
1178.5701	488.62503
1178.8201	487.19824
1179.0701	485.3921
1179.3201	488.15906
1179.5701	487.08356
1179.8201	484.80963
1180.0701	474.75952
1180.3201	487.2127
1180.5701	487.2128
1180.8201	486.96124
1181.0701	462.13208
1181.3201	483.8401
1181.5701	485.98486
1181.8201	484.31378
1182.0701	476.36426
1182.3201	483.39648
1182.5701	474.0677
1182.8201	375.2023
1183.0701	474.18896
1183.3201	482.7187
1183.5701	484.48077
1183.8201	457.6993
1184.0701	479.64417
1184.3201	481.61414
1184.5701	483.69305
1184.8201	467.82318
1185.0701	479.12766
1185.3201	481.5569
1185.5701	481.39188
1185.8201	482.70636
1186.0701	479.43146
1186.3201	471.1916
1186.5701	481.65097
1186.8201	482.19968
1187.0701	477.81604
1187.3201	473.98438
1187.5701	479.51788
1187.8201	477.9935
1188.0701	470.9114
1188.3201	398.3032
1188.5701	473.01944
1188.8201	477.7957
1189.0701	463.4631
1189.3201	461.34442
1189.5701	455.073
1189.8201	479.33502
1190.0701	478.3283
1190.3201	476.3084
1190.5701	477.51166
1190.8201	476.1293
1191.0701	477.70297
1191.3201	477.23447
1191.5701	478.00006
1191.8201	477.8998
1192.0701	475.71136
1192.3201	477.30945
1192.5701	474.05582
1192.8201	476.62347
1193.0701	476.1584
1193.3201	475.55402
1193.5701	473.60388
1193.8201	476.0891
1194.0701	473.80722
1194.3201	472.74982
1194.5701	474.74646
1194.8201	473.9728
1195.0701	452.00006
1195.3201	472.45587
1195.5701	460.8594
1195.8201	471.53387
1196.0701	473.25806
1196.3201	472.13925
1196.5701	473.1635
1196.8201	471.1351
1197.0701	468.37582
1197.3201	413.66663
1197.5701	469.96463
1197.8201	471.6489
1198.0701	469.96524
1198.3201	413.6501
1198.5701	454.65833
1198.8201	467.00916
1199.0701	418.10092
1199.3201	463.30725
1199.5701	468.9298
1199.8201	469.8218
1200.0701	467.65652
1200.3201	466.61194
1200.5701	454.57614
1200.8201	468.2287
1201.0701	467.40863
1201.3201	468.29288
1201.5701	467.47375
1201.8201	468.5042
1202.0701	466.23367
1202.3201	465.19302
1202.5701	465.108
1202.8201	464.55902
1203.0701	392.58368
1203.3201	451.7372
1203.5701	464.09793
1203.8201	461.4602
1204.0701	448.29486
1204.3201	462.85092
1204.5701	464.22546
1204.8201	465.31653
1205.0701	465.3343
1205.3201	457.88666
1205.5701	463.39297
1205.8201	464.52756
1206.0701	463.4802
1206.3201	458.68695
1206.5701	460.09244
1206.8201	458.04578
1207.0701	460.4417
1207.3201	460.8391
1207.5701	460.71222
1207.8201	459.39728
1208.0701	444.98053
1208.3201	337.43353
1208.5701	443.99792
1208.8201	457.23544
1209.0701	460.64832
1209.3201	458.79153
1209.5701	456.884
1209.8201	456.73395
1210.0701	455.29028
1210.3201	412.29883
1210.5701	459.67014
1210.8201	458.51996
1211.0701	446.25317
1211.3201	457.56088
1211.5701	455.74753
1211.8201	452.66217
1212.0701	454.4729
1212.3201	459.58987
1212.5701	456.25952
1212.8201	457.26648
1213.0701	455.7412
1213.3201	457.47626
1213.5701	457.16888
1213.8201	458.08038
1214.0701	457.13608
1214.3201	457.07382
1214.5701	453.0562
1214.8201	456.00327
1215.0701	454.71313
1215.3201	453.08142
1215.5701	456.34555
1215.8201	455.8002
1216.0701	456.20428
1216.3201	455.91052
1216.5701	454.73422
1216.8201	451.45096
1217.0701	454.9616
1217.3201	452.50137
1217.5701	454.24747
1217.8201	452.0825
1218.0701	454.12323
1218.3201	449.2023
1218.5701	453.51874
1218.8201	451.77017
1219.0701	445.49445
1219.3201	451.45352
1219.5701	447.49298
1219.8201	442.33344
1220.0701	442.061
1220.3201	452.5772
1220.5701	448.24643
1220.8201	449.7298
1221.0701	449.68353
1221.3201	432.9613
1221.5701	444.133
1221.8201	451.435
1222.0701	449.3835
1222.3201	451.02023
1222.5701	449.52408
1222.8201	439.64484
1223.0701	448.44336
1223.3201	446.0779
1223.5701	450.28195
1223.8201	446.74115
1224.0701	447.7815
1224.3201	443.90253
1224.5701	443.99792
1224.8201	442.84824
1225.0701	439.28586
1225.3201	448.4803
1225.5701	443.45807
1225.8201	448.1497
1226.0701	446.88336
1226.3201	444.46185
1226.5701	444.6725
1226.8201	444.7484
1227.0701	403.22998
1227.3201	445.9175
1227.5701	445.15048
1227.8201	444.8186
1228.0701	443.57883
1228.3201	444.63074
1228.5701	445.039
1228.8201	443.48483
1229.0701	444.2186
1229.3201	445.7927
1229.5701	443.71338
1229.8201	440.56912
1230.0701	444.58148
1230.3201	443.33878
1230.5701	442.68033
1230.8201	441.68442
1231.0701	440.14865
1231.3201	435.50745
1231.5701	442.79572
1231.8201	442.60785
1232.0701	438.05316
1232.3201	438.45248
1232.5701	442.71356
1232.8201	440.55975
1233.0701	434.57983
1233.3201	438.47263
1233.5701	422.7661
1233.8201	432.8346
1234.0701	437.81458
1234.3201	428.29617
1234.5701	437.8924
1234.8201	433.52374
1235.0701	438.25153
1235.3201	431.4816
1235.5701	435.74072
1235.8201	414.9858
1236.0701	420.61066
1236.3201	428.57742
1236.5701	432.43076
1236.8201	433.48816
1237.0701	432.39276
1237.3201	438.74457
1237.5701	438.98157
1237.8201	438.49323
1238.0701	436.10416
1238.3201	438.33157
1238.5701	437.4725
1238.8201	437.3786
1239.0701	423.17133
1239.3201	436.2069
1239.5701	416.8429
1239.8201	434.5474
1240.0701	427.29312
1240.3201	426.96265
1240.5701	432.00653
1240.8201	432.644
1241.0701	435.6147
1241.3201	432.32172
1241.5701	424.53647
1241.8201	427.44232
1242.0701	433.1592
1242.3201	414.42035
1242.5701	429.93015
1242.8201	433.0656
1243.0701	432.99228
1243.3201	403.4748
1243.5701	433.47223
1243.8201	432.953
1244.0701	432.03384
1244.3201	432.99075
1244.5701	432.18042
1244.8201	432.9673
1245.0701	430.88898
1245.3201	432.64407
1245.5701	431.60764
1245.8201	427.78973
1246.0701	430.14035
1246.3201	429.58514
1246.5701	430.57184
1246.8201	428.6338
1247.0701	417.2367
1247.3201	430.13342
1247.5701	426.0537
1247.8201	430.886
1248.0701	429.68442
1248.3201	430.3037
1248.5701	428.39673
1248.8201	430.02567
1249.0701	429.2007
1249.3201	424.17047
1249.5701	425.4314
1249.8201	427.52734
1250.0701	426.7192
1250.3201	426.1673
1250.5701	427.95978
1250.8201	414.01074
1251.0701	417.29816
1251.3201	414.56366
1251.5701	408.03067
1251.8201	398.26343
1252.0701	416.10165
1252.3201	409.67206
1252.5701	423.85556
1252.8201	422.43073
1253.0701	421.5152
1253.3201	409.48804
1253.5701	423.74512
1253.8201	423.5576
1254.0701	422.82162
1254.3201	423.63983
1254.5701	424.321
1254.8201	421.5282
1255.0701	419.15787
1255.3201	424.02863
1255.5701	422.74146
1255.8201	421.03284
1256.0701	410.155
1256.3201	412.8297
1256.5701	417.18185
1256.8201	414.75183
1257.0701	420.65396
1257.3201	422.57275
1257.5701	422.98743
1257.8201	421.01288
1258.0701	397.30713
1258.3201	415.46674
1258.5701	422.5404
1258.8201	415.9857
1259.0701	418.4085
1259.3201	421.74097
1259.5701	421.7853
1259.8201	420.89417
1260.0701	410.32703
1260.3201	419.4218
1260.5701	418.96014
1260.8201	411.78098
1261.0701	408.58124
1261.3201	403.29248
1261.5701	410.23444
1261.8201	418.58243
1262.0701	418.6042
1262.3201	419.48035
1262.5701	418.20135
1262.8201	417.61365
1263.0701	417.10992
1263.3201	417.94757
1263.5701	417.88428
1263.8201	382.66403
1264.0701	417.55328
1264.3201	416.88885
1264.5701	412.44644
1264.8201	403.58875
1265.0701	416.89542
1265.3201	417.08035
1265.5701	414.87198
1265.8201	414.51767
1266.0701	415.28226
1266.3201	412.22894
1266.5701	412.47086
1266.8201	414.00436
1267.0701	413.25812
1267.3201	415.64578
1267.5701	415.10013
1267.8201	392.69952
1268.0701	412.59247
1268.3201	410.60898
1268.5701	412.16254
1268.8201	413.56146
1269.0701	413.62457
1269.3201	411.07404
1269.5701	411.50082
1269.8201	408.91718
1270.0701	411.70544
1270.3201	411.81195
1270.5701	406.2944
1270.8201	402.19995
1271.0701	411.7572
1271.3201	408.7436
1271.5701	412.01746
1271.8201	411.63608
1272.0701	412.09348
1272.3201	412.1909
1272.5701	410.364
1272.8201	409.88553
1273.0701	410.52667
1273.3201	409.0474
1273.5701	408.93448
1273.8201	406.8344
1274.0701	404.63416
1274.3201	407.48596
1274.5701	409.26837
1274.8201	409.28278
1275.0701	408.31436
1275.3201	409.27173
1275.5701	409.12616
1275.8201	407.5584
1276.0701	408.53125
1276.3201	407.73895
1276.5701	407.03555
1276.8201	405.42966
1277.0701	406.30853
1277.3201	405.71997
1277.5701	406.02094
1277.8201	405.12088
1278.0701	403.79333
1278.3201	404.3524
1278.5701	403.9136
1278.8201	400.8694
1279.0701	400.3108
1279.3201	398.31958
1279.5701	399.20773
1279.8201	396.7947
1280.0701	394.1811
1280.3201	392.62985
1280.5701	389.66113
1280.8201	375.4737
1281.0701	379.57825
1281.3201	370.2439
1281.5701	345.0537
1281.8201	297.21396
1282.0701	351.62982
1282.3201	367.3257
1282.5701	372.81256
1282.8201	383.69794
1283.0701	386.6345
1283.3201	391.7209
1283.5701	394.07214
1283.8201	394.84424
1284.0701	390.73514
1284.3201	397.00833
1284.5701	397.62866
1284.8201	395.545
1285.0701	399.25186
1285.3201	399.0041
1285.5701	399.9276
1285.8201	400.07312
1286.0701	400.19995
1286.3201	398.93512
1286.5701	400.3943
1286.8201	399.8135
1287.0701	394.56293
1287.3201	398.8049
1287.5701	398.47723
1287.8201	398.10748
1288.0701	389.90036
1288.3201	399.33914
1288.5701	397.84366
1288.8201	400.20126
1289.0701	399.91138
1289.3201	399.30005
1289.5701	393.7012
1289.8201	397.18817
1290.0701	372.44962
1290.3201	397.4416
1290.5701	398.34558
1290.8201	391.8489
1291.0701	394.3825
1291.3201	397.53955
1291.5701	397.79193
1291.8201	396.1963
1292.0701	396.1117
1292.3201	386.6698
1292.5701	395.6925
1292.8201	395.34088
1293.0701	395.51782
1293.3201	392.9546
1293.5701	387.86057
1293.8201	394.98257
1294.0701	392.06372
1294.3201	396.22015
1294.5701	392.81918
1294.8201	392.958
1295.0701	392.46637
1295.3201	394.98224
1295.5701	386.33762
1295.8201	395.0656
1296.0701	393.12872
1296.3201	395.1735
1296.5701	382.0432
1296.8201	392.9509
1297.0701	382.2787
1297.3201	393.57953
1297.5701	377.30707
1297.8201	392.419
1298.0701	393.50415
1298.3201	392.66953
1298.5701	391.92365
1298.8201	390.55618
1299.0701	389.38275
1299.3201	393.09818
1299.5701	392.36383
1299.8201	392.07278
1300.0701	391.15796
1300.3201	386.61435
1300.5701	390.5081
1300.8201	391.33667
1301.0701	390.51733
1301.3201	391.50403
1301.5701	388.82785
1301.8201	390.84552
1302.0701	390.62732
1302.3201	390.77087
1302.5701	390.8635
1302.8201	384.84644
1303.0701	377.41318
1303.3201	381.8888
1303.5701	389.1725
1303.8201	382.68604
1304.0701	386.0088
1304.3201	387.4013
1304.5701	386.6181
1304.8201	385.07074
1305.0701	387.99084
1305.3201	384.4483
1305.5701	389.05072
1305.8201	386.4959
1306.0701	388.87497
1306.3201	371.9375
1306.5701	386.4102
1306.8201	386.0701
1307.0701	386.7847
1307.3201	385.98206
1307.5701	384.761
1307.8201	385.87802
1308.0701	387.79034
1308.3201	387.3139
1308.5701	382.26282
1308.8201	386.58493
1309.0701	386.79672
1309.3201	386.68686
1309.5701	376.47092
1309.8201	376.94412
1310.0701	385.85056
1310.3201	378.9125
1310.5701	385.1736
1310.8201	384.83975
1311.0701	385.27118
1311.3201	384.40994
1311.5701	383.92853
1311.8201	377.2472
1312.0701	373.33176
1312.3201	323.3714
1312.5701	380.34927
1312.8201	383.32
1313.0701	380.75128
1313.3201	382.7451
1313.5701	368.16028
1313.8201	383.44226
1314.0701	383.34668
1314.3201	381.8024
1314.5701	380.13574
1314.8201	369.63712
1315.0701	332.74683
1315.3201	371.1377
1315.5701	379.1325
1315.8201	376.7652
1316.0701	381.05563
1316.3201	380.6522
1316.5701	379.33557
1316.8201	380.8443
1317.0701	381.14966
1317.3201	381.5369
1317.5701	365.45407
1317.8201	373.90518
1318.0701	370.56512
1318.3201	380.2575
1318.5701	380.29333
1318.8201	379.8413
1319.0701	377.3137
1319.3201	379.16446
1319.5701	377.581
1319.8201	374.00342
1320.0701	376.27316
1320.3201	378.77667
1320.5701	378.56003
1320.8201	371.02118
1321.0701	374.4934
1321.3201	371.21173
1321.5701	377.90436
1321.8201	375.78278
1322.0701	377.96393
1322.3201	375.63776
1322.5701	377.7779
1322.8201	378.09778
1323.0701	376.76608
1323.3201	377.93793
1323.5701	376.47403
1323.8201	377.55417
1324.0701	377.34647
1324.3201	376.3051
1324.5701	376.74908
1324.8201	373.77536
1325.0701	371.55914
1325.3201	374.255
1325.5701	375.58566
1325.8201	375.66296
1326.0701	370.03156
1326.3201	374.66324
1326.5701	366.14444
1326.8201	370.81882
1327.0701	375.2998
1327.3201	374.14478
1327.5701	375.1588
1327.8201	372.80005
1328.0701	361.50336
1328.3201	373.78827
1328.5701	365.81454
1328.8201	346.94687
1329.0701	372.8028
1329.3201	357.09958
1329.5701	372.5196
1329.8201	371.71625
1330.0701	372.41864
1330.3201	366.19522
1330.5701	371.96783
1330.8201	366.383
1331.0701	372.42313
1331.3201	372.87927
1331.5701	372.02087
1331.8201	331.78064
1332.0701	371.38596
1332.3201	371.9507
1332.5701	366.5711
1332.8201	367.13025
1333.0701	371.31995
1333.3201	371.05197
1333.5701	371.12515
1333.8201	370.8589
1334.0701	369.17444
1334.3201	366.63712
1334.5701	366.6159
1334.8201	370.16647
1335.0701	369.36307
1335.3201	352.53342
1335.5701	369.73575
1335.8201	368.62564
1336.0701	368.74084
1336.3201	369.24884
1336.5701	368.73187
1336.8201	367.30344
1337.0701	363.28986
1337.3201	367.78912
1337.5701	368.03528
1337.8201	367.80045
1338.0701	368.2542
1338.3201	362.49973
1338.5701	362.26596
1338.8201	358.5722
1339.0701	360.4854
1339.3201	353.39954
1339.5701	362.89584
1339.8201	361.23822
1340.0701	365.57312
1340.3201	365.65158
1340.5701	366.46857
1340.8201	361.6447
1341.0701	366.0341
1341.3201	365.43048
1341.5701	358.4421
1341.8201	365.1997
1342.0701	363.62384
1342.3201	365.69537
1342.5701	362.43066
1342.8201	364.44574
1343.0701	364.46307
1343.3201	360.37524
1343.5701	364.82355
1343.8201	364.98547
1344.0701	364.24457
1344.3201	363.95386
1344.5701	364.12933
1344.8201	362.87265
1345.0701	362.54776
1345.3201	357.24106
1345.5701	361.55658
1345.8201	355.2655
1346.0701	363.01254
1346.3201	362.00403
1346.5701	362.03333
1346.8201	361.98938
1347.0701	362.57202
1347.3201	361.5055
1347.5701	359.0485
1347.8201	362.2068
1348.0701	361.78943
1348.3201	359.18137
1348.5701	361.6202
1348.8201	358.32
1349.0701	361.23645
1349.3201	359.512
1349.5701	351.3203
1349.8201	360.80978
1350.0701	353.04184
1350.3201	349.2357
1350.5701	360.93185
1350.8201	360.83493
1351.0701	359.9588
1351.3201	360.56445
1351.5701	360.36896
1351.8201	357.21524
1352.0701	359.7171
1352.3201	356.57993
1352.5701	359.1994
1352.8201	358.84433
1353.0701	359.52502
1353.3201	357.1542
1353.5701	358.5417
1353.8201	358.99792
1354.0701	357.0647
1354.3201	358.21652
1354.5701	350.6695
1354.8201	350.54242
1355.0701	356.7416
1355.3201	351.5106
1355.5701	357.33417
1355.8201	351.6562
1356.0701	350.2097
1356.3201	356.8103
1356.5701	335.88947
1356.8201	355.93472
1357.0701	355.08026
1357.3201	355.33624
1357.5701	355.8427
1357.8201	356.51852
1358.0701	353.46408
1358.3201	355.5965
1358.5701	355.84717
1358.8201	348.09036
1359.0701	351.5614
1359.3201	355.1987
1359.5701	355.02863
1359.8201	353.6109
1360.0701	342.94623
1360.3201	351.4068
1360.5701	353.4148
1360.8201	354.20773
1361.0701	354.2837
1361.3201	353.93634
1361.5701	354.11218
1361.8201	353.5974
1362.0701	351.68396
1362.3201	353.3585
1362.5701	335.9687
1362.8201	352.73944
1363.0701	349.21472
1363.3201	352.2284
1363.5701	350.3267
1363.8201	352.9325
1364.0701	352.5563
1364.3201	339.2661
1364.5701	352.59387
1364.8201	351.42358
1365.0701	346.02618
1365.3201	351.90723
1365.5701	350.9693
1365.8201	349.43842
1366.0701	350.9903
1366.3201	350.53625
1366.5701	351.23746
1366.8201	334.9378
1367.0701	349.76172
1367.3201	351.14185
1367.5701	349.81628
1367.8201	350.50632
1368.0701	345.06573
1368.3201	331.7834
1368.5701	349.73862
1368.8201	346.85056
1369.0701	349.47372
1369.3201	342.89685
1369.5701	348.4419
1369.8201	326.44525
1370.0701	348.49124
1370.3201	345.61578
1370.5701	339.23703
1370.8201	348.5929
1371.0701	341.63052
1371.3201	348.47766
1371.5701	348.56317
1371.8201	345.17798
1372.0701	338.2251
1372.3201	346.72784
1372.5701	336.86142
1372.8201	344.97723
1373.0701	343.9779
1373.3201	331.64752
1373.5701	344.23425
1373.8201	347.05054
1374.0701	339.57263
1374.3201	329.19214
1374.5701	345.7159
1374.8201	346.01074
1375.0701	342.96466
1375.3201	344.51166
1375.5701	327.6557
1375.8201	343.76132
1376.0701	345.73837
1376.3201	341.0762
1376.5701	334.71713
1376.8201	345.5636
1377.0701	345.33878
1377.3201	342.89185
1377.5701	334.94034
1377.8201	343.71677
1378.0701	344.85193
1378.3201	344.24942
1378.5701	344.04953
1378.8201	343.6997
1379.0701	341.87695
1379.3201	343.65076
1379.5701	343.50742
1379.8201	334.51312
1380.0701	342.5534
1380.3201	343.494
1380.5701	343.29587
1380.8201	340.82187
1381.0701	342.42273
1381.3201	341.19757
1381.5701	333.34436
1381.8201	341.29593
1382.0701	342.85162
1382.3201	338.59744
1382.5701	337.78894
1382.8201	341.25607
1383.0701	332.84747
1383.3201	339.35672
1383.5701	340.77
1383.8201	341.94275
1384.0701	340.91763
1384.3201	340.29697
1384.5701	340.59613
1384.8201	330.1137
1385.0701	333.77652
1385.3201	339.05396
1385.5701	339.4006
1385.8201	339.4772
1386.0701	340.01178
1386.3201	324.7636
1386.5701	334.98962
1386.8201	338.18774
1387.0701	335.85718
1387.3201	339.55994
1387.5701	337.76532
1387.8201	337.60715
1388.0701	339.2358
1388.3201	339.16476
1388.5701	337.59625
1388.8201	337.41882
1389.0701	338.55347
1389.3201	336.13254
1389.5701	333.45456
1389.8201	320.59863
1390.0701	338.3336
1390.3201	336.30664
1390.5701	334.0195
1390.8201	336.59308
1391.0701	337.42932
1391.3201	337.27698
1391.5701	337.4829
1391.8201	333.22345
1392.0701	337.05872
1392.3201	334.57306
1392.5701	334.25998
1392.8201	336.10645
1393.0701	336.23596
1393.3201	334.31653
1393.5701	335.65283
1393.8201	331.69012
1394.0701	328.16068
1394.3201	333.93085
1394.5701	334.58554
1394.8201	331.50784
1395.0701	324.44962
1395.3201	330.86896
1395.5701	333.6634
1395.8201	333.45398
1396.0701	331.45294
1396.3201	333.69897
1396.5701	332.6561
1396.8201	331.85135
1397.0701	334.34933
1397.3201	334.07672
1397.5701	333.294
1397.8201	329.43347
1398.0701	332.7394
1398.3201	333.38818
1398.5701	327.7177
1398.8201	333.3979
1399.0701	328.98712
1399.3201	331.4973
1399.5701	310.39984
1399.8201	319.28473
1400.0701	332.39926
1400.3201	328.0356
1400.5701	325.3501
1400.8201	313.18967
1401.0701	331.16946
1401.3201	332.0982
1401.5701	331.76572
1401.8201	331.03107
1402.0701	329.7475
1402.3201	330.76614
1402.5701	316.69736
1402.8201	324.95334
1403.0701	330.77945
1403.3201	330.91913
1403.5701	330.04153
1403.8201	325.6765
1404.0701	327.59027
1404.3201	329.71045
1404.5701	330.3918
1404.8201	328.57556
1405.0701	330.53583
1405.3201	330.0696
1405.5701	329.8164
1405.8201	327.32483
1406.0701	322.37115
1406.3201	327.12012
1406.5701	327.73737
1406.8201	327.52536
1407.0701	326.15024
1407.3201	321.96692
1407.5701	326.7952
1407.8201	328.0335
1408.0701	313.48605
1408.3201	326.23752
1408.5701	326.89435
1408.8201	328.19244
1409.0701	326.93936
1409.3201	323.99567
1409.5701	325.89496
1409.8201	324.37943
1410.0701	327.125
1410.3201	324.61627
1410.5701	326.36533
1410.8201	324.6292
1411.0701	323.98047
1411.3201	307.209
1411.5701	323.1262
1411.8201	323.28586
1412.0701	307.63718
1412.3201	322.58673
1412.5701	321.4079
1412.8201	304.16602
1413.0701	320.33292
1413.3201	323.97476
1413.5701	324.11548
1413.8201	319.5147
1414.0701	324.6297
1414.3201	324.08752
1414.5701	323.6062
1414.8201	323.16376
1415.0701	320.59018
1415.3201	323.8767
1415.5701	317.208
1415.8201	314.34802
1416.0701	319.0633
1416.3201	321.46307
1416.5701	323.15823
1416.8201	320.32513
1417.0701	320.8584
1417.3201	323.86523
1417.5701	322.8343
1417.8201	322.14764
1418.0701	319.9273
1418.3201	309.8853
1418.5701	322.02255
1418.8201	317.84067
1419.0701	320.68515
1419.3201	321.5514
1419.5701	314.92075
1419.8201	321.43307
1420.0701	317.72296
1420.3201	312.84247
1420.5701	305.5008
1420.8201	321.46173
1421.0701	318.74756
1421.3201	317.6368
1421.5701	321.3829
1421.8201	319.46924
1422.0701	307.87195
1422.3201	314.2156
1422.5701	306.1412
1422.8201	318.80853
1423.0701	320.50055
1423.3201	318.57297
1423.5701	291.9031
1423.8201	306.5839
1424.0701	316.88663
1424.3201	317.3411
1424.5701	319.253
1424.8201	315.65482
1425.0701	314.81845
1425.3201	302.6041
1425.5701	314.93457
1425.8201	304.68542
1426.0701	304.32538
1426.3201	317.68146
1426.5701	317.57526
1426.8201	316.1546
1427.0701	290.21362
1427.3201	315.79004
1427.5701	316.52896
1427.8201	318.35748
1428.0701	315.25616
1428.3201	316.51202
1428.5701	293.1622
1428.8201	316.9253
1429.0701	303.77774
1429.3201	283.71182
1429.5701	313.51367
1429.8201	310.91406
1430.0701	312.75806
1430.3201	315.6681
1430.5701	309.31598
1430.8201	293.79483
1431.0701	311.84976
1431.3201	312.92584
1431.5701	314.85422
1431.8201	308.73862
1432.0701	315.3278
1432.3201	311.7355
1432.5701	316.06018
1432.8201	314.9959
1433.0701	312.25797
1433.3201	314.19748
1433.5701	311.20963
1433.8201	313.11008
1434.0701	313.45654
1434.3201	312.15198
1434.5701	311.1456
1434.8201	312.8327
1435.0701	312.20914
1435.3201	309.79883
1435.5701	312.6339
1435.8201	313.31107
1436.0701	306.86887
1436.3201	313.19278
1436.5701	313.99106
1436.8201	313.1625
1437.0701	310.2116
1437.3201	310.33932
1437.5701	311.9352
1437.8201	310.75946
1438.0701	309.90695
1438.3201	312.16394
1438.5701	311.8761
1438.8201	311.56046
1439.0701	307.7296
1439.3201	309.95312
1439.5701	307.30817
1439.8201	304.03186
1440.0701	249.56343
1440.3201	294.2143
1440.5701	306.50232
1440.8201	311.2541
1441.0701	311.14648
1441.3201	308.49457
1441.5701	307.15152
1441.8201	306.71994
1442.0701	282.78546
1442.3201	306.94873
1442.5701	304.14908
1442.8201	294.52686
1443.0701	304.87756
1443.3201	306.98407
1443.5701	308.25708
1443.8201	298.70746
1444.0701	305.28006
1444.3201	283.8156
1444.5701	309.18063
1444.8201	308.62527
1445.0701	308.38168
1445.3201	309.1174
1445.5701	305.14374
1445.8201	297.48907
1446.0701	304.27798
1446.3201	301.55157
1446.5701	301.97803
1446.8201	306.30994
1447.0701	306.73474
1447.3201	307.9876
1447.5701	305.8326
1447.8201	303.93283
1448.0701	292.72586
1448.3201	301.06082
1448.5701	302.76602
1448.8201	307.10123
1449.0701	297.19568
1449.3201	304.4124
1449.5701	306.89752
1449.8201	290.74994
1450.0701	300.1435
1450.3201	292.54797
1450.5701	304.45245
1450.8201	303.95044
1451.0701	296.62378
1451.3201	278.40866
1451.5701	305.91562
1451.8201	304.2296
1452.0701	302.55182
1452.3201	293.37256
1452.5701	300.10278
1452.8201	302.0737
1453.0701	301.85403
1453.3201	302.09973
1453.5701	303.64313
1453.8201	298.99487
1454.0701	299.1139
1454.3201	259.93097
1454.5701	292.55
1454.8201	301.54504
1455.0701	302.0735
1455.3201	301.53223
1455.5701	275.6814
1455.8201	299.61673
1456.0701	302.80856
1456.3201	302.27344
1456.5701	284.67615
1456.8201	293.16977
1457.0701	302.15704
1457.3201	300.81018
1457.5701	301.22443
1457.8201	301.3277
1458.0701	301.67447
1458.3201	302.10583
1458.5701	302.7711
1458.8201	291.631
1459.0701	300.29843
1459.3201	293.16245
1459.5701	301.29422
1459.8201	299.82495
1460.0701	294.33066
1460.3201	289.56
1460.5701	298.30646
1460.8201	301.42798
1461.0701	299.0884
1461.3201	300.91263
1461.5701	289.18658
1461.8201	299.79193
1462.0701	293.71527
1462.3201	300.3379
1462.5701	300.08258
1462.8201	289.4084
1463.0701	293.23505
1463.3201	300.24142
1463.5701	290.79333
1463.8201	288.68753
1464.0701	294.72568
1464.3201	298.24487
1464.5701	298.88037
1464.8201	288.03854
1465.0701	268.55197
1465.3201	273.53207
1465.5701	294.42667
1465.8201	296.57935
1466.0701	298.96906
1466.3201	298.53293
1466.5701	297.1358
1466.8201	297.55328
1467.0701	298.18723
1467.3201	292.6959
1467.5701	297.00604
1467.8201	295.15125
1468.0701	292.73563
1468.3201	295.61594
1468.5701	296.8007
1468.8201	297.2866
1469.0701	282.92307
1469.3201	297.9919
1469.5701	295.85516
1469.8201	295.4144
1470.0701	283.90176
1470.3201	276.04254
1470.5701	296.1961
1470.8201	287.37836
1471.0701	286.36276
1471.3201	296.63403
1471.5701	288.50775
1471.8201	291.0925
1472.0701	281.41968
1472.3201	284.08963
1472.5701	295.1852
1472.8201	294.63342
1473.0701	295.22916
1473.3201	292.7212
1473.5701	295.66275
1473.8201	280.14838
1474.0701	291.97827
1474.3201	294.79694
1474.5701	292.08548
1474.8201	292.64255
1475.0701	270.68262
1475.3201	286.51468
1475.5701	282.68542
1475.8201	292.01175
1476.0701	294.3067
1476.3201	292.8753
1476.5701	291.28207
1476.8201	285.7845
1477.0701	285.69873
1477.3201	291.10147
1477.5701	293.1573
1477.8201	287.9517
1478.0701	278.70532
1478.3201	273.5698
1478.5701	293.9161
1478.8201	291.40332
1479.0701	291.64224
1479.3201	290.6078
1479.5701	291.5961
1479.8201	291.68823
1480.0701	288.66162
1480.3201	290.79047
1480.5701	280.1626
1480.8201	286.64365
1481.0701	289.4511
1481.3201	292.075
1481.5701	280.3457
1481.8201	290.80496
1482.0701	290.73828
1482.3201	289.03815
1482.5701	266.13797
1482.8201	289.33496
1483.0701	289.94894
1483.3201	280.7838
1483.5701	284.96332
1483.8201	286.1803
1484.0701	288.7414
1484.3201	282.90204
1484.5701	289.95657
1484.8201	284.86032
1485.0701	277.57077
1485.3201	287.23022
1485.5701	289.97708
1485.8201	288.72528
1486.0701	275.05072
1486.3201	281.91275
1486.5701	283.89948
1486.8201	284.5516
1487.0701	278.382
1487.3201	270.20383
1487.5701	247.95424
1487.8201	183.29385
1488.0701	268.00247
1488.3201	283.0945
1488.5701	284.93652
1488.8201	286.51312
1489.0701	286.67953
1489.3201	287.39835
1489.5701	285.54074
1489.8201	270.79584
1490.0701	285.70825
1490.3201	277.3279
1490.5701	286.5665
1490.8201	282.69727
1491.0701	269.7909
1491.3201	286.3371
1491.5701	284.287
1491.8201	284.07666
1492.0701	287.30383
1492.3201	286.34387
1492.5701	285.31943
1492.8201	283.5477
1493.0701	286.95087
1493.3201	285.0338
1493.5701	285.04977
1493.8201	276.0929
1494.0701	286.04538
1494.3201	286.75314
1494.5701	283.1819
1494.8201	281.14142
1495.0701	285.89108
1495.3201	284.53003
1495.5701	259.63138
1495.8201	277.58572
1496.0701	282.90942
1496.3201	283.38794
1496.5701	284.47375
1496.8201	269.85327
1497.0701	284.59128
1497.3201	281.57196
1497.5701	285.32367
1497.8201	282.41025
1498.0701	266.32004
1498.3201	280.14087
1498.5701	283.2445
1498.8201	268.29236
1499.0701	282.96902
1499.3201	283.8455
1499.5701	282.59827
1499.8201	282.54178
1500.0701	282.71143
1500.3201	279.05872
1500.5701	282.92615
1500.8201	277.92966
1501.0701	279.43585
1501.3201	269.4412
1501.5701	279.6015
1501.8201	266.4436
1502.0701	274.91397
1502.3201	244.60374
1502.5701	201.36868
1502.8201	270.78647
1503.0701	277.61618
1503.3201	278.83475
1503.5701	274.49796
1503.8201	262.32367
1504.0701	205.39166
1504.3201	272.873
1504.5701	267.49915
1504.8201	225.59192
1505.0701	253.77763
1505.3201	274.09125
1505.5701	280.36472
1505.8201	278.46185
1506.0701	278.77032
1506.3201	273.51547
1506.5701	280.35577
1506.8201	279.2786
1507.0701	277.7303
1507.3201	279.25412
1507.5701	279.80112
1507.8201	261.32773
1508.0701	279.5592
1508.3201	279.3059
1508.5701	280.10098
1508.8201	278.96002
1509.0701	279.52386
1509.3201	277.82852
1509.5701	251.64314
1509.8201	276.14587
1510.0701	274.11737
1510.3201	278.92572
1510.5701	276.01797
1510.8201	278.8469
1511.0701	278.54602
1511.3201	277.51196
1511.5701	272.14322
1511.8201	271.90976
1512.0701	270.83124
1512.3201	263.3543
1512.5701	276.92572
1512.8201	277.26163
1513.0701	277.83875
1513.3201	276.1682
1513.5701	260.04248
1513.8201	272.89655
1514.0701	277.6095
1514.3201	266.06662
1514.5701	275.7433
1514.8201	276.63983
1515.0701	277.44623
1515.3201	274.94037
1515.5701	270.85602
1515.8201	263.9527
1516.0701	271.31384
1516.3201	267.39163
1516.5701	275.7457
1516.8201	268.06113
1517.0701	275.8902
1517.3201	274.40018
1517.5701	271.58307
1517.8201	272.93607
1518.0701	273.375
1518.3201	267.40628
1518.5701	272.21713
1518.8201	274.26254
1519.0701	273.87082
1519.3201	274.15137
1519.5701	267.7269
1519.8201	267.38806
1520.0701	270.06122
1520.3201	269.75253
1520.5701	273.7179
1520.8201	250.17126
1521.0701	271.27783
1521.3201	272.2076
1521.5701	274.01218
1521.8201	259.2722
1522.0701	257.2311
1522.3201	273.49576
1522.5701	265.87344
1522.8201	271.69998
1523.0701	261.92093
1523.3201	270.39194
1523.5701	271.29767
1523.8201	272.10703
1524.0701	267.00134
1524.3201	263.0262
1524.5701	260.128
1524.8201	273.06787
1525.0701	270.01434
1525.3201	270.47513
1525.5701	272.19165
1525.8201	269.93457
1526.0701	269.7968
1526.3201	259.6363
1526.5701	270.657
1526.8201	270.4798
1527.0701	269.57373
1527.3201	271.37122
1527.5701	270.91916
1527.8201	269.96454
1528.0701	267.3613
1528.3201	268.77457
1528.5701	269.4921
1528.8201	269.3274
1529.0701	267.81595
1529.3201	245.1441
1529.5701	239.85526
1529.8201	266.23416
1530.0701	265.3264
1530.3201	269.16254
1530.5701	267.35983
1530.8201	267.61343
1531.0701	269.1891
1531.3201	268.9635
1531.5701	258.3936
1531.8201	266.36365
1532.0701	268.72632
1532.3201	268.01605
1532.5701	268.29007
1532.8201	267.22937
1533.0701	266.2831
1533.3201	267.713
1533.5701	246.62238
1533.8201	267.38672
1534.0701	266.51578
1534.3201	254.45801
1534.5701	267.17786
1534.8201	261.4649
1535.0701	264.057
1535.3201	266.51654
1535.5701	267.72284
1535.8201	266.13043
1536.0701	262.6661
1536.3201	266.57233
1536.5701	267.69962
1536.8201	267.26346
1537.0701	266.38312
1537.3201	267.23535
1537.5701	242.69823
1537.8201	261.86047
1538.0701	263.92856
1538.3201	265.3507
1538.5701	259.92136
1538.8201	265.06168
1539.0701	265.08295
1539.3201	264.45377
1539.5701	236.89917
1539.8201	261.81857
1540.0701	257.50937
1540.3201	254.82114
1540.5701	264.64664
1540.8201	264.1482
1541.0701	264.22852
1541.3201	264.21567
1541.5701	262.24603
1541.8201	262.54117
1542.0701	257.7903
1542.3201	250.12901
1542.5701	263.59897
1542.8201	262.1871
1543.0701	263.46948
1543.3201	261.446
1543.5701	261.9803
1543.8201	262.7546
1544.0701	263.14914
1544.3201	261.52255
1544.5701	262.06747
1544.8201	262.73508
1545.0701	258.98904
1545.3201	261.79373
1545.5701	262.68262
1545.8201	261.74185
1546.0701	262.1917
1546.3201	261.0043
1546.5701	258.70908
1546.8201	262.30725
1547.0701	254.80177
1547.3201	260.6648
1547.5701	255.91199
1547.8201	251.01907
1548.0701	258.71417
1548.3201	261.35114
1548.5701	258.0769
1548.8201	258.7458
1549.0701	259.45316
1549.3201	256.0175
1549.5701	254.77562
1549.8201	257.12125
1550.0701	249.51784
1550.3201	259.86224
1550.5701	259.59293
1550.8201	259.86612
1551.0701	257.6211
1551.3201	257.73193
1551.5701	260.49365
1551.8201	256.0247
1552.0701	258.12253
1552.3201	256.44122
1552.5701	259.96854
1552.8201	258.55405
1553.0701	247.2766
1553.3201	247.60822
1553.5701	258.01202
1553.8201	251.67961
1554.0701	255.28648
1554.3201	245.88745
1554.5701	256.20883
1554.8201	257.3614
1555.0701	253.23117
1555.3201	254.94846
1555.5701	246.85648
1555.8201	240.36398
1556.0701	252.61798
1556.3201	255.06631
1556.5701	254.43993
1556.8201	255.57828
1557.0701	254.0335
1557.3201	255.80151
1557.5701	256.2226
1557.8201	256.47314
1558.0701	256.64746
1558.3201	256.1392
1558.5701	248.43777
1558.8201	246.62897
1559.0701	243.00204
1559.3201	249.51492
1559.5701	255.67892
1559.8201	253.33388
1560.0701	257.4027
1560.3201	254.40292
1560.5701	254.84778
1560.8201	256.3997
1561.0701	255.14603
1561.3201	255.67899
1561.5701	255.09932
1561.8201	253.38177
1562.0701	231.37947
1562.3201	254.17204
1562.5701	256.42218
1562.8201	255.447
1563.0701	242.94183
1563.3201	242.10431
1563.5701	255.0185
1563.8201	252.12648
1564.0701	253.04324
1564.3201	254.61108
1564.5701	248.66779
1564.8201	246.7973
1565.0701	255.13197
1565.3201	247.1448
1565.5701	251.12057
1565.8201	252.69608
1566.0701	246.71487
1566.3201	241.70416
1566.5701	246.56442
1566.8201	254.22498
1567.0701	248.59183
1567.3201	240.5687
1567.5701	249.70743
1567.8201	245.84892
1568.0701	247.88501
1568.3201	247.5617
1568.5701	239.04932
1568.8201	250.09047
1569.0701	247.78839
1569.3201	224.89143
1569.5701	248.16328
1569.8201	248.62825
1570.0701	248.39677
1570.3201	247.42232
1570.5701	248.92828
1570.8201	248.34988
1571.0701	249.06342
1571.3201	249.40765
1571.5701	248.44939
1571.8201	250.3318
1572.0701	250.43756
1572.3201	231.44812
1572.5701	249.4587
1572.8201	247.82596
1573.0701	247.67291
1573.3201	250.21088
1573.5701	250.07816
1573.8201	248.99802
1574.0701	203.70306
1574.3201	242.89386
1574.5701	244.16675
1574.8201	200.94302
1575.0701	237.4248
1575.3201	248.27577
1575.5701	249.78323
1575.8201	249.38892
1576.0701	245.89206
1576.3201	239.86285
1576.5701	183.55383
1576.8201	218.39322
1577.0701	229.39502
1577.3201	241.33154
1577.5701	249.51357
1577.8201	247.11765
1578.0701	249.6161
1578.3201	249.26216
1578.5701	245.42926
1578.8201	240.08707
1579.0701	245.45447
1579.3201	249.86908
1579.5701	249.69789
1579.8201	239.48355
1580.0701	245.64413
1580.3201	249.49263
1580.5701	245.38449
1580.8201	249.0164
1581.0701	245.93375
1581.3201	247.94339
1581.5701	242.47171
1581.8201	220.92831
1582.0701	242.60649
1582.3201	228.99065
1582.5701	248.14456
1582.8201	246.39676
1583.0701	246.74298
1583.3201	230.16196
1583.5701	235.87552
1583.8201	238.45169
1584.0701	246.40186
1584.3201	246.04242
1584.5701	244.00597
1584.8201	244.9276
1585.0701	243.32864
1585.3201	235.6816
1585.5701	244.28345
1585.8201	241.41573
1586.0701	238.69904
1586.3201	234.72481
1586.5701	241.53168
1586.8201	224.60335
1587.0701	240.90019
1587.3201	237.16165
1587.5701	239.60432
1587.8201	224.47952
1588.0701	229.9183
1588.3201	229.67242
1588.5701	222.22482
1588.8201	192.56593
1589.0701	226.85684
1589.3201	234.58954
1589.5701	225.40808
1589.8201	232.37129
1590.0701	235.07806
1590.3201	229.98056
1590.5701	221.75783
1590.8201	237.23843
1591.0701	228.60228
1591.3201	232.6177
1591.5701	242.3179
1591.8201	240.36598
1592.0701	234.94316
1592.3201	242.48718
1592.5701	243.4598
1592.8201	235.52687
1593.0701	238.59644
1593.3201	239.64171
1593.5701	243.17009
1593.8201	239.25722
1594.0701	234.98267
1594.3201	241.12521
1594.5701	242.90564
1594.8201	242.38731
1595.0701	242.2197
1595.3201	229.2874
1595.5701	230.25
1595.8201	238.16972
1596.0701	210.84448
1596.3201	237.31982
1596.5701	228.44336
1596.8201	240.60844
1597.0701	237.55753
1597.3201	243.2385
1597.5701	242.70447
1597.8201	242.18265
1598.0701	224.58365
1598.3201	239.94516
1598.5701	242.88971
1598.8201	238.34915
1599.0701	240.55435
1599.3201	241.57515
1599.5701	241.35034
1599.8201	239.1565
1600.0701	241.38669
1600.3201	237.35146
1600.5701	217.56836
1600.8201	228.47101
1601.0701	231.83618
1601.3201	240.63602
1601.5701	234.99892
1601.8201	240.31615
1602.0701	229.2967
1602.3201	238.7329
1602.5701	239.5984
1602.8201	239.71228
1603.0701	239.51913
1603.3201	238.9314
1603.5701	237.52905
1603.8201	237.47658
1604.0701	217.41072
1604.3201	231.58754
1604.5701	237.15865
1604.8201	238.91234
1605.0701	231.37909
1605.3201	238.07309
1605.5701	237.89285
1605.8201	231.37451
1606.0701	217.01678
1606.3201	236.48276
1606.5701	236.75671
1606.8201	236.87634
1607.0701	226.52591
1607.3201	229.06488
1607.5701	234.4829
1607.8201	234.31335
1608.0701	234.8503
1608.3201	234.24136
1608.5701	233.94243
1608.8201	230.61139
1609.0701	229.10767
1609.3201	228.12558
1609.5701	208.47198
1609.8201	228.24884
1610.0701	225.5165
1610.3201	210.854
1610.5701	226.04555
1610.8201	226.3454
1611.0701	226.1664
1611.3201	226.0897
1611.5701	221.18782
1611.8201	228.93515
1612.0701	229.75339
1612.3201	228.98285
1612.5701	220.69754
1612.8201	230.51584
1613.0701	231.4339
1613.3201	231.4279
1613.5701	219.2988
1613.8201	230.04416
1614.0701	232.71732
1614.3201	233.34033
1614.5701	233.54498
1614.8201	232.11983
1615.0701	216.84471
1615.3201	223.44043
1615.5701	217.32262
1615.8201	215.55727
1616.0701	234.1669
1616.3201	223.09233
1616.5701	218.50813
1616.8201	232.761
1617.0701	232.92825
1617.3201	233.4854
1617.5701	229.42441
1617.8201	230.5534
1618.0701	221.69823
1618.3201	232.61572
1618.5701	219.96246
1618.8201	230.10074
1619.0701	233.08783
1619.3201	230.73198
1619.5701	219.71207
1619.8201	206.80075
1620.0701	230.23148
1620.3201	220.72137
1620.5701	231.91702
1620.8201	221.52153
1621.0701	232.91217
1621.3201	225.16388
1621.5701	219.69193
1621.8201	232.68625
1622.0701	232.73912
1622.3201	232.32953
1622.5701	224.22675
1622.8201	229.89084
1623.0701	225.04591
1623.3201	228.52328
1623.5701	219.99617
1623.8201	230.8539
1624.0701	219.94745
1624.3201	230.51834
1624.5701	228.5311
1624.8201	231.47098
1625.0701	231.24655
1625.3201	229.08054
1625.5701	231.10878
1625.8201	229.218
1626.0701	229.41605
1626.3201	228.23952
1626.5701	230.50111
1626.8201	230.16467
1627.0701	229.33853
1627.3201	229.68047
1627.5701	228.92645
1627.8201	230.11809
1628.0701	228.5261
1628.3201	229.56021
1628.5701	227.30139
1628.8201	229.53604
1629.0701	228.15521
1629.3201	219.77817
1629.5701	227.42654
1629.8201	225.43057
1630.0701	226.69266
1630.3201	228.63924
1630.5701	229.39346
1630.8201	228.84265
1631.0701	220.28221
1631.3201	226.09511
1631.5701	212.0648
1631.8201	227.32297
1632.0701	228.20222
1632.3201	221.93442
1632.5701	223.15903
1632.8201	228.17096
1633.0701	221.58295
1633.3201	217.6817
1633.5701	221.48271
1633.8201	226.34651
1634.0701	226.33406
1634.3201	226.45746
1634.5701	222.09732
1634.8201	224.87949
1635.0701	225.69955
1635.3201	223.82576
1635.5701	224.78741
1635.8201	223.17834
1636.0701	224.24013
1636.3201	208.94699
1636.5701	204.6771
1636.8201	219.0263
1637.0701	222.09978
1637.3201	221.6918
1637.5701	220.52957
1637.8201	219.72353
1638.0701	180.28809
1638.3201	212.50381
1638.57	216.22797
1638.82	217.24704
1639.07	215.56079
1639.32	206.56645
1639.57	210.61937
1639.82	202.24963
1640.07	212.02313
1640.32	209.73364
1640.57	203.05147
1640.82	204.90231
1641.07	208.91309
1641.32	204.92459
1641.57	211.0788
1641.82	210.89145
1642.07	214.57614
1642.32	216.79242
1642.57	216.8613
1642.82	217.88022
1643.07	218.42531
1643.32	217.89064
1643.57	204.42407
1643.82	218.807
1644.07	217.24388
1644.32	215.81516
1644.57	200.69328
1644.82	218.95111
1645.07	219.01842
1645.32	218.58803
1645.57	215.76584
1645.82	220.98778
1646.07	220.09744
1646.32	219.63116
1646.57	214.36844
1646.82	217.47409
1647.07	215.11171
1647.32	214.35056
1647.57	219.31723
1647.82	219.9356
1648.07	217.33429
1648.32	219.03992
1648.57	199.5224
1648.82	217.11702
1649.07	217.82224
1649.32	216.01874
1649.57	218.3946
1649.82	219.5965
1650.07	220.13043
1650.32	219.57838
1650.57	210.8478
1650.82	220.00008
1651.07	219.84306
1651.32	219.50395
1651.57	219.01076
1651.82	217.30441
1652.07	217.06305
1652.32	211.083
1652.57	214.52731
1652.82	219.28033
1653.07	219.05367
1653.32	218.14162
1653.57	215.0248
1653.82	208.3559
1654.07	215.87904
1654.32	211.39722
1654.57	214.5154
1654.82	213.75775
1655.07	211.53328
1655.32	215.30093
1655.57	214.44696
1655.82	217.18857
1656.07	200.34723
1656.32	215.8882
1656.57	217.61801
1656.82	216.5611
1657.07	210.03145
1657.32	217.44438
1657.57	215.49222
1657.82	214.9573
1658.07	212.93884
1658.32	216.52258
1658.57	209.6105
1658.82	211.32643
1659.07	213.88014
1659.32	213.53075
1659.57	215.03195
1659.82	215.06609
1660.07	215.74068
1660.32	216.53165
1660.57	214.9434
1660.82	214.72984
1661.07	214.37027
1661.32	210.26863
1661.57	214.9858
1661.82	215.02457
1662.07	207.68924
1662.32	214.27818
1662.57	211.47972
1662.82	214.76631
1663.07	209.54517
1663.32	204.34729
1663.57	211.74057
1663.82	213.81067
1664.07	209.15773
1664.32	213.43765
1664.57	202.23494
1664.82	206.16316
1665.07	209.80638
1665.32	202.33899
1665.57	213.02423
1665.82	212.78146
1666.07	209.87589
1666.32	211.39922
1666.57	202.82797
1666.82	212.38573
1667.07	210.42072
1667.32	203.2936
1667.57	212.26837
1667.82	208.89868
1668.07	193.84193
1668.32	211.7121
1668.57	208.91359
1668.82	211.97295
1669.07	212.03947
1669.32	210.32089
1669.57	211.1507
1669.82	211.14839
1670.07	211.1354
1670.32	210.5554
1670.57	209.9108
1670.82	204.97354
1671.07	209.18768
1671.32	208.93045
1671.57	209.15799
1671.82	182.92769
1672.07	204.83568
1672.32	208.00539
1672.57	204.32632
1672.82	208.22188
1673.07	208.67288
1673.32	209.11136
1673.57	208.52579
1673.82	205.68771
1674.07	207.61397
1674.32	207.15295
1674.57	207.56815
1674.82	203.7543
1675.07	174.20616
1675.32	201.42102
1675.57	206.65694
1675.82	204.97237
1676.07	203.56766
1676.32	192.1512
1676.57	205.31522
1676.82	205.15982
1677.07	204.79987
1677.32	204.27596
1677.57	202.47601
1677.82	200.96031
1678.07	201.55301
1678.32	200.452
1678.57	199.4075
1678.82	199.87144
1679.07	198.64722
1679.32	193.61874
1679.57	195.31662
1679.82	193.96562
1680.07	190.47198
1680.32	187.8987
1680.57	185.25186
1680.82	185.21082
1681.07	188.81013
1681.32	191.59682
1681.57	191.35934
1681.82	187.07246
1682.07	194.9726
1682.32	187.52457
1682.57	198.55286
1682.82	193.23828
1683.07	200.05255
1683.32	198.36455
1683.57	200.15503
1683.82	200.34982
1684.07	201.38535
1684.32	199.42447
1684.57	201.11887
1684.82	202.29688
1685.07	202.02066
1685.32	201.87509
1685.57	199.46783
1685.82	192.02559
1686.07	201.99219
1686.32	201.46445
1686.57	200.60616
1686.82	197.95082
1687.07	199.63745
1687.32	200.36884
1687.57	200.03816
1687.82	200.99997
1688.07	200.58977
1688.32	201.92816
1688.57	201.74414
1688.82	200.5197
1689.07	178.3361
1689.32	199.76419
1689.57	200.95024
1689.82	202.08357
1690.07	200.84435
1690.32	187.41258
1690.57	200.5585
1690.82	202.12776
1691.07	201.8225
1691.32	201.79396
1691.57	201.43109
1691.82	201.90346
1692.07	201.91025
1692.32	201.53333
1692.57	201.26372
1692.82	197.02661
1693.07	201.20084
1693.32	200.48875
1693.57	201.05324
1693.82	201.25504
1694.07	201.25862
1694.32	201.1985
1694.57	200.3971
1694.82	200.0474
1695.07	200.45401
1695.32	199.69717
1695.57	199.9736
1695.82	196.78581
1696.07	200.09366
1696.32	200.0726
1696.57	196.85593
1696.82	199.14442
1697.07	190.10269
1697.32	198.89955
1697.57	196.98215
1697.82	198.95094
1698.07	196.79037
1698.32	196.50543
1698.57	194.18913
1698.82	196.38443
1699.07	198.2171
1699.32	193.48431
1699.57	186.39185
1699.82	197.97916
1700.07	191.42911
1700.32	197.91919
1700.57	183.71996
1700.82	190.85641
1701.07	187.39105
1701.32	195.72493
1701.57	197.4542
1701.82	195.94824
1702.07	191.9149
1702.32	197.1251
1702.57	195.77109
1702.82	195.58333
1703.07	196.80573
1703.32	193.53273
1703.57	196.63074
1703.82	196.56725
1704.07	196.8962
1704.32	196.193
1704.57	196.95337
1704.82	193.65616
1705.07	196.57382
1705.32	195.79337
1705.57	196.46036
1705.82	194.26587
1706.07	196.50697
1706.32	194.3595
1706.57	186.57472
1706.82	195.3945
1707.07	194.25302
1707.32	193.378
1707.57	194.7476
1707.82	193.7337
1708.07	195.18707
1708.32	195.05907
1708.57	187.92488
1708.82	194.26385
1709.07	186.8025
1709.32	192.50314
1709.57	194.42993
1709.82	192.86858
1710.07	193.98837
1710.32	192.62892
1710.57	187.7041
1710.82	142.2677
1711.07	180.0741
1711.32	190.15459
1711.57	193.29018
1711.82	190.94804
1712.07	190.75256
1712.32	193.94087
1712.57	191.75964
1712.82	193.73788
1713.07	190.89714
1713.32	192.09924
1713.57	193.35463
1713.82	190.59761
1714.07	192.97748
1714.32	193.40637
1714.57	193.31726
1714.82	192.26764
1715.07	190.95486
1715.32	191.71255
1715.57	192.27069
1715.82	192.11874
1716.07	179.69336
1716.32	192.17148
1716.57	191.97797
1716.82	190.8663
1717.07	191.57976
1717.32	191.65092
1717.57	190.52489
1717.82	190.94159
1718.07	191.14212
1718.32	189.72165
1718.57	191.45012
1718.82	189.30554
1719.07	190.95413
1719.32	188.60857
1719.57	189.38857
1719.82	189.55003
1720.07	189.71472
1720.32	184.27582
1720.57	184.21393
1720.82	189.33261
1721.07	190.42944
1721.32	189.87515
1721.57	187.59332
1721.82	187.56644
1722.07	189.0265
1722.32	188.39745
1722.57	165.41327
1722.82	187.84384
1723.07	184.98709
1723.32	180.45862
1723.57	184.41003
1723.82	187.98785
1724.07	184.89006
1724.32	187.53981
1724.57	187.21191
1724.82	187.97865
1725.07	186.34476
1725.32	182.76111
1725.57	187.6429
1725.82	187.07115
1726.07	187.9878
1726.32	187.24504
1726.57	186.45934
1726.82	184.56374
1727.07	186.65942
1727.32	183.63823
1727.57	175.42464
1727.82	183.1484
1728.07	184.93848
1728.32	183.39069
1728.57	185.53586
1728.82	183.53229
1729.07	185.92186
1729.32	184.53438
1729.57	185.22209
1729.82	185.37218
1730.07	182.30566
1730.32	175.85295
1730.57	182.90991
1730.82	183.67114
1731.07	183.47028
1731.32	183.22548
1731.57	183.26361
1731.82	183.07692
1732.07	182.29662
1732.32	172.32698
1732.57	171.7002
1732.82	157.03746
1733.07	176.9162
1733.32	178.94635
1733.57	178.13615
1733.82	156.12117
1734.07	176.3864
1734.32	176.66658
1734.57	175.6055
1734.82	174.22052
1735.07	171.89423
1735.32	170.64066
1735.57	167.62672
1735.82	164.09702
1736.07	158.93301
1736.32	158.81578
1736.57	163.67557
1736.82	167.75436
1737.07	170.2283
1737.32	170.75438
1737.57	172.48065
1737.82	174.74718
1738.07	174.45148
1738.32	176.1986
1738.57	174.55576
1738.82	177.1416
1739.07	175.99597
1739.32	173.2554
1739.57	178.41696
1739.82	179.10516
1740.07	176.31387
1740.32	178.26492
1740.57	176.33598
1740.82	159.48267
1741.07	177.13432
1741.32	179.9064
1741.57	178.72954
1741.82	177.19678
1742.07	178.65762
1742.32	178.46207
1742.57	179.02753
1742.82	173.44048
1743.07	179.89792
1743.32	179.07347
1743.57	179.03688
1743.82	180.51651
1744.07	180.57411
1744.32	180.58887
1744.57	180.0651
1744.82	166.9111
1745.07	177.231
1745.32	178.45192
1745.57	168.63202
1745.82	177.68613
1746.07	179.26166
1746.32	180.02902
1746.57	165.75165
1746.82	167.42561
1747.07	176.05658
1747.32	179.85156
1747.57	174.55687
1747.82	179.38951
1748.07	179.47952
1748.32	179.23402
1748.57	178.93578
1748.82	179.51361
1749.07	179.14954
1749.32	178.35843
1749.57	177.79283
1749.82	179.02008
1750.07	173.95119
1750.32	177.68724
1750.57	163.737
1750.82	177.04657
1751.07	177.79823
1751.32	176.8148
1751.57	178.47893
1751.82	177.81923
1752.07	174.72238
1752.32	177.09015
1752.57	175.08014
1752.82	178.24792
1753.07	178.02803
1753.32	177.76404
1753.57	177.41457
1753.82	176.24818
1754.07	177.04083
1754.32	177.48222
1754.57	170.15443
1754.82	176.41785
1755.07	174.95764
1755.32	173.93124
1755.57	174.35149
1755.82	176.35904
1756.07	176.53578
1756.32	175.62253
1756.57	172.85387
1756.82	177.01782
1757.07	176.04877
1757.32	176.76482
1757.57	175.66928
1757.82	176.38232
1758.07	174.77567
1758.32	175.53159
1758.57	172.16052
1758.82	175.9303
1759.07	176.25719
1759.32	175.59747
1759.57	175.94633
1759.82	172.9194
1760.07	174.6156
1760.32	173.73532
1760.57	165.59476
1760.82	172.70651
1761.07	172.9002
1761.32	173.72763
1761.57	164.48691
1761.82	165.12773
1762.07	174.217
1762.32	166.10246
1762.57	174.08537
1762.82	174.85693
1763.07	174.86835
1763.32	173.66171
1763.57	172.79172
1763.82	160.4169
1764.07	166.15012
1764.32	168.30536
1764.57	172.35521
1764.82	174.28993
1765.07	174.36081
1765.32	173.70212
1765.57	171.50063
1765.82	171.83159
1766.07	173.43825
1766.32	165.54771
1766.57	173.55719
1766.82	173.53842
1767.07	170.5422
1767.32	166.9141
1767.57	169.07544
1767.82	168.19826
1768.07	159.98096
1768.32	170.26741
1768.57	171.03835
1768.82	172.00644
1769.07	171.0504
1769.32	171.6881
1769.57	167.38585
1769.82	171.13141
1770.07	172.18703
1770.32	169.91356
1770.57	169.93527
1770.82	163.61824
1771.07	170.34302
1771.32	170.66217
1771.57	170.79373
1771.82	167.1619
1772.07	155.03731
1772.32	169.38931
1772.57	171.23628
1772.82	167.52652
1773.07	170.29535
1773.32	169.67049
1773.57	167.42805
1773.82	170.33817
1774.07	168.8603
1774.32	168.53622
1774.57	169.47336
1774.82	168.55136
1775.07	168.25601
1775.32	164.9598
1775.57	169.52797
1775.82	167.80556
1776.07	164.74579
1776.32	164.49979
1776.57	169.51941
1776.82	162.218
1777.07	158.56456
1777.32	168.17297
1777.57	167.80824
1777.82	168.85138
1778.07	168.26315
1778.32	165.1629
1778.57	167.52893
1778.82	166.98128
1779.07	163.78839
1779.32	167.48288
1779.57	168.52985
1779.82	167.92633
1780.07	166.18237
1780.32	167.69177
1780.57	168.40063
1780.82	168.1315
1781.07	167.04868
1781.32	160.5591
1781.57	167.37585
1781.82	166.9642
1782.07	167.50607
1782.32	163.27744
1782.57	164.51607
1782.82	166.94263
1783.07	167.2183
1783.32	166.50826
1783.57	163.3999
1783.82	163.7715
1784.07	165.20784
1784.32	163.74362
1784.57	160.37405
1784.82	165.44217
1785.07	166.45905
1785.32	161.03912
1785.57	164.75363
1785.82	164.10088
1786.07	163.012
1786.32	164.37639
1786.57	165.70604
1786.82	166.83397
1787.07	163.56798
1787.32	164.15085
1787.57	165.37967
1787.82	166.03386
1788.07	165.46533
1788.32	165.8136
1788.57	166.06052
1788.82	165.68814
1789.07	164.55383
1789.32	164.92648
1789.57	165.77058
1789.82	165.16928
1790.07	165.52948
1790.32	164.83636
1790.57	165.19478
1790.82	163.82301
1791.07	163.67044
1791.32	165.06339
1791.57	163.65762
1791.82	162.77469
1792.07	164.75395
1792.32	162.91441
1792.57	163.57944
1792.82	163.1855
1793.07	154.41058
1793.32	161.31401
1793.57	161.41356
1793.82	154.59169
1794.07	160.774
1794.32	164.28098
1794.57	164.00223
1794.82	163.70312
1795.07	162.99406
1795.32	163.75328
1795.57	162.2207
1795.82	163.23218
1796.07	163.38077
1796.32	163.01146
1796.57	159.88428
1796.82	162.06418
1797.07	160.91397
1797.32	162.67007
1797.57	162.6896
1797.82	162.53793
1798.07	160.22234
1798.32	160.00398
1798.57	161.68533
1798.82	162.06201
1799.07	162.05124
1799.32	160.60858
1799.57	161.0632
1799.82	161.51682
1800.07	159.68158
1800.32	159.63113
1800.57	158.04126
1800.82	161.7139
1801.07	161.29776
1801.32	160.9925
1801.57	159.14728
1801.82	160.98291
1802.07	155.47556
1802.32	158.77882
1802.57	160.02133
1802.82	156.9109
1803.07	152.7059
1803.32	160.00742
1803.57	159.54202
1803.82	159.44983
1804.07	160.82187
1804.32	158.83119
1804.57	160.51247
1804.82	160.17139
1805.07	156.04808
1805.32	156.40822
1805.57	159.72554
1805.82	160.13812
1806.07	157.0293
1806.32	157.17201
1806.57	157.55347
1806.82	157.66817
1807.07	159.28072
1807.32	157.987
1807.57	158.74364
1807.82	158.27467
1808.07	150.54857
1808.32	158.34435
1808.57	158.75905
1808.82	157.48384
1809.07	154.69315
1809.32	157.03781
1809.57	155.26822
1809.82	151.51471
1810.07	156.34818
1810.32	155.54034
1810.57	154.8453
1810.82	153.99976
1811.07	154.8884
1811.32	156.05357
1811.57	156.5219
1811.82	153.05524
1812.07	156.16685
1812.32	155.5901
1812.57	155.75513
1812.82	154.75475
1813.07	154.92747
1813.32	155.15018
1813.57	154.71822
1813.82	152.01244
1814.07	152.2645
1814.32	152.00092
1814.57	152.75597
1814.82	151.75134
1815.07	151.41267
1815.32	145.54852
1815.57	142.10187
1815.82	146.14963
1816.07	146.8069
1816.32	145.34152
1816.57	143.31528
1816.82	139.89412
1817.07	134.90785
1817.32	128.70505
1817.57	131.6052
1817.82	137.34537
1818.07	139.85109
1818.32	143.94125
1818.57	145.73372
1818.82	146.5885
1819.07	146.32704
1819.32	149.14096
1819.57	149.4121
1819.82	150.13788
1820.07	150.18056
1820.32	151.12589
1820.57	151.49655
1820.82	151.9561
1821.07	152.16861
1821.32	152.17719
1821.57	151.87445
1821.82	152.46878
1822.07	141.16246
1822.32	145.09119
1822.57	151.3436
1822.82	151.49557
1823.07	150.35712
1823.32	153.12274
1823.57	153.51341
1823.82	152.20598
1824.07	153.68097
1824.32	150.85925
1824.57	153.70174
1824.82	151.64166
1825.07	152.15732
1825.32	153.68968
1825.57	153.66663
1825.82	152.61404
1826.07	153.60434
1826.32	152.8544
1826.57	153.43109
1826.82	153.35869
1827.07	152.5292
1827.32	151.92322
1827.57	151.49509
1827.82	153.32071
1828.07	152.69154
1828.32	145.53212
1828.57	147.70541
1828.82	152.74149
1829.07	152.62968
1829.32	152.67401
1829.57	150.83672
1829.82	151.18976
1830.07	150.52412
1830.32	151.58133
1830.57	152.14203
1830.82	152.44077
1831.07	152.34906
1831.32	152.3488
1831.57	149.54498
1831.82	151.70776
1832.07	141.44057
1832.32	151.68375
1832.57	151.73672
1832.82	152.32343
1833.07	151.67178
1833.32	152.1382
1833.57	151.85399
1833.82	149.95068
1834.07	149.0028
1834.32	151.18414
1834.57	150.46622
1834.82	151.10663
1835.07	149.6894
1835.32	149.03128
1835.57	149.85509
1835.82	149.51459
1836.07	148.31421
1836.32	150.8409
1836.57	146.70282
1836.82	148.77689
1837.07	149.97243
1837.32	139.30571
1837.57	141.82254
1837.82	148.84323
1838.07	149.30807
1838.32	150.57014
1838.57	150.20853
1838.82	148.45728
1839.07	150.06955
1839.32	146.82272
1839.57	145.98044
1839.82	146.93628
1840.07	149.82397
1840.32	149.88191
1840.57	147.19267
1840.82	148.35854
1841.07	149.13147
1841.32	142.91379
1841.57	143.54419
1841.82	144.49442
1842.07	147.45192
1842.32	132.24048
1842.57	148.64658
1842.82	145.72995
1843.07	145.43272
1843.32	146.5894
1843.57	148.55632
1843.82	147.34445
1844.07	147.39658
1844.32	145.88441
1844.57	144.50862
1844.82	145.65102
1845.07	148.55507
1845.32	148.18268
1845.57	148.30289
1845.82	147.76338
1846.07	147.84647
1846.32	144.91376
1846.57	121.99142
1846.82	146.18076
1847.07	143.80495
1847.32	142.94348
1847.57	147.67368
1847.82	145.82996
1848.07	147.51001
1848.32	147.38431
1848.57	147.176
1848.82	146.90108
1849.07	145.67578
1849.32	146.77815
1849.57	144.43166
1849.82	146.92303
1850.07	146.82376
1850.32	146.63681
1850.57	146.93388
1850.82	145.88528
1851.07	145.68187
1851.32	146.4666
1851.57	145.54836
1851.82	143.58575
1852.07	142.29979
1852.32	143.89253
1852.57	137.71822
1852.82	144.82175
1853.07	144.88275
1853.32	145.88477
1853.57	145.51138
1853.82	145.37672
1854.07	145.74765
1854.32	144.85246
1854.57	145.1871
1854.82	140.81128
1855.07	145.14499
1855.32	130.28232
1855.57	137.69289
1855.82	143.70872
1856.07	144.83636
1856.32	145.10469
1856.57	145.04526
1856.82	144.91568
1857.07	145.02109
1857.32	144.76585
1857.57	139.27306
1857.82	144.27042
1858.07	140.45885
1858.32	138.39178
1858.57	142.49652
1858.82	144.54996
1859.07	144.55927
1859.32	143.86032
1859.57	141.22786
1859.82	143.97176
1860.07	143.52402
1860.32	143.70897
1860.57	143.5066
1860.82	142.00496
1861.07	140.4443
1861.32	142.96605
1861.57	142.46199
1861.82	143.202
1862.07	141.27348
1862.32	140.47092
1862.57	140.6278
1862.82	140.89235
1863.07	142.53357
1863.32	142.3224
1863.57	142.70609
1863.82	138.67053
1864.07	142.26768
1864.32	142.84314
1864.57	142.72136
1864.82	141.65991
1865.07	142.00128
1865.32	137.56654
1865.57	141.18552
1865.82	134.85646
1866.07	140.92743
1866.32	137.6768
1866.57	141.30646
1866.82	141.42873
1867.07	141.3284
1867.32	140.89513
1867.57	137.45546
1867.82	140.81253
1868.07	138.6244
1868.32	139.8976
1868.57	140.65228
1868.82	140.05917
1869.07	140.23625
1869.32	139.30003
1869.57	137.98462
1869.82	139.8597
1870.07	139.06311
1870.32	138.5333
1870.57	139.19943
1870.82	138.64218
1871.07	138.08543
1871.32	134.40433
1871.57	137.71175
1871.82	137.32915
1872.07	134.74461
1872.32	121.83011
1872.57	134.5354
1872.82	134.8076
1873.07	133.61533
1873.32	132.81158
1873.57	129.47557
1873.82	129.83197
1874.07	127.77359
1874.32	124.09181
1874.57	120.61931
1874.82	113.47137
1875.07	90.014305
1875.32	110.43887
1875.57	119.77977
1875.82	124.229965
1876.07	126.110214
1876.32	129.16406
1876.57	130.63216
1876.82	131.85493
1877.07	132.00548
1877.32	122.82455
1877.57	133.43027
1877.82	134.49825
1878.07	135.13892
1878.32	134.7314
1878.57	135.4513
1878.82	135.21686
1879.07	133.88837
1879.32	135.71147
1879.57	136.62112
1879.82	136.30795
1880.07	136.66599
1880.32	136.68173
1880.57	137.10039
1880.82	136.84029
1881.07	137.20688
1881.32	136.9995
1881.57	136.95793
1881.82	134.37587
1882.07	133.27182
1882.32	137.04663
1882.57	137.47424
1882.82	136.70663
1883.07	137.15543
1883.32	136.76471
1883.57	137.08243
1883.82	136.53244
1884.07	136.99815
1884.32	133.12344
1884.57	131.92345
1884.82	135.85516
1885.07	133.0956
1885.32	136.45546
1885.57	123.51938
1885.82	135.5078
1886.07	134.19302
1886.32	135.41254
1886.57	136.71857
1886.82	135.71062
1887.07	136.1896
1887.32	133.71655
1887.57	133.259
1887.82	131.98648
1888.07	136.01935
1888.32	132.30002
1888.57	127.728195
1888.82	133.88823
1889.07	135.38367
1889.32	133.48744
1889.57	133.85458
1889.82	118.00922
1890.07	133.24126
1890.32	135.86665
1890.57	128.99983
1890.82	135.14381
1891.07	135.13168
1891.32	130.18462
1891.57	131.16258
1891.82	134.28648
1892.07	125.598724
1892.32	132.33995
1892.57	123.957985
1892.82	126.40176
1893.07	132.93369
1893.32	134.79308
1893.57	132.90715
1893.82	134.23538
1894.07	133.38596
1894.32	126.263275
1894.57	131.42151
1894.82	133.66168
1895.07	131.38564
1895.32	134.33444
1895.57	131.14487
1895.82	126.08183
1896.07	133.29794
1896.32	130.26675
1896.57	131.19525
1896.82	133.83453
1897.07	128.99368
1897.32	131.87038
1897.57	133.88638
1897.82	133.08138
1898.07	133.81839
1898.32	133.90872
1898.57	128.56932
1898.82	126.72848
1899.07	133.86656
1899.32	134.01933
1899.57	133.23743
1899.82	133.74251
1900.07	132.95326
1900.32	130.80435
1900.57	131.34053
1900.82	132.97752
1901.07	132.62898
1901.32	132.85504
1901.57	133.16168
1901.82	132.62886
1902.07	132.33614
1902.32	132.89122
1902.57	132.9972
1902.82	132.12401
1903.07	122.361824
1903.32	132.5876
1903.57	132.23436
1903.82	132.6573
1904.07	132.2037
1904.32	130.36502
1904.57	126.603745
1904.82	132.0923
1905.07	130.8037
1905.32	132.15636
1905.57	132.28749
1905.82	130.76007
1906.07	131.25047
1906.32	132.11444
1906.57	131.94852
1906.82	132.07043
1907.07	131.32283
1907.32	131.54822
1907.57	131.42206
1907.82	129.26468
1908.07	128.46115
1908.32	128.45973
1908.57	130.64958
1908.82	131.54407
1909.07	131.4262
1909.32	131.38292
1909.57	130.48099
1909.82	131.42055
1910.07	130.85634
1910.32	128.8711
1910.57	130.71423
1910.82	130.96123
1911.07	129.94385
1911.32	120.38751
1911.57	130.09991
1911.82	130.82635
1912.07	125.30575
1912.32	128.31096
1912.57	130.49171
1912.82	129.93805
1913.07	129.68686
1913.32	129.91733
1913.57	130.27739
1913.82	129.61465
1914.07	126.017654
1914.32	129.5887
1914.57	130.0785
1914.82	128.97699
1915.07	129.9502
1915.32	127.82889
1915.57	128.39453
1915.82	127.62213
1916.07	128.18442
1916.32	129.25813
1916.57	129.39862
1916.82	129.15536
1917.07	128.50768
1917.32	128.03317
1917.57	128.14139
1917.82	129.01717
1918.07	128.86737
1918.32	128.90488
1918.57	128.7046
1918.82	128.67934
1919.07	128.06715
1919.32	113.86574
1919.57	121.879715
1919.82	128.04883
1920.07	127.78825
1920.32	126.75582
1920.57	128.54913
1920.82	126.64702
1921.07	128.36267
1921.32	123.03403
1921.57	125.956
1921.82	127.61896
1922.07	127.13942
1922.32	128.12764
1922.57	128.10912
1922.82	127.22569
1923.07	127.82938
1923.32	127.34153
1923.57	127.6216
1923.82	126.76935
1924.07	127.43321
1924.32	127.71431
1924.57	124.99321
1924.82	127.2792
1925.07	126.03757
1925.32	126.93146
1925.57	126.22781
1925.82	121.96068
1926.07	125.4642
1926.32	127.20284
1926.57	124.52041
1926.82	122.218765
1927.07	126.81241
1927.32	126.39344
1927.57	126.25304
1927.82	125.78999
1928.07	125.405716
1928.32	116.990265
1928.57	124.79924
1928.82	126.50641
1929.07	126.30685
1929.32	126.23671
1929.57	126.30679
1929.82	125.36189
1930.07	125.833015
1930.32	124.1576
1930.57	124.76417
1930.82	114.62211
1931.07	123.385086
1931.32	125.771675
1931.57	125.31526
1931.82	124.996376
1932.07	124.930435
1932.32	125.61715
1932.57	124.92397
1932.82	125.40808
1933.07	125.27373
1933.32	123.763565
1933.57	121.60893
1933.82	124.55593
1934.07	115.99343
1934.32	124.6381
1934.57	123.99497
1934.82	124.663956
1935.07	124.16366
1935.32	124.23092
1935.57	123.99553
1935.82	124.61884
1936.07	124.439964
1936.32	123.8694
1936.57	123.63022
1936.82	123.980675
1937.07	124.0275
1937.32	123.844086
1937.57	123.527374
1937.82	122.41278
1938.07	123.520004
1938.32	123.23793
1938.57	113.984085
1938.82	122.720726
1939.07	122.699005
1939.32	118.58498
1939.57	121.93096
1939.82	122.011116
1940.07	121.821434
1940.32	117.72034
1940.57	121.46782
1940.82	120.80287
1941.07	119.02458
1941.32	120.27188
1941.57	119.76215
1941.82	119.471375
1942.07	118.91723
1942.32	118.14461
1942.57	112.569626
1942.82	116.69547
1943.07	112.47821
1943.32	104.52572
1943.57	112.80556
1943.82	111.12198
1944.07	108.05682
1944.32	102.61837
1944.57	97.286385
1944.82	104.32295
1945.07	108.34175
1945.32	99.92392
1945.57	113.09493
1945.82	114.35439
1946.07	115.33874
1946.32	114.698906
1946.57	116.940384
1946.82	117.010345
1947.07	113.376755
1947.32	118.389496
1947.57	118.0986
1947.82	118.95799
1948.07	118.45506
1948.32	115.192
1948.57	117.968636
1948.82	119.83105
1949.07	117.31476
1949.32	108.89413
1949.57	119.866974
1949.82	120.079994
1950.07	120.092026
1950.32	120.03483
1950.57	102.393936
1950.82	107.621155
1951.07	119.1172
1951.32	120.4359
1951.57	120.23469
1951.82	120.53444
1952.07	120.55271
1952.32	120.43953
1952.57	120.65892
1952.82	120.5457
1953.07	120.24768
1953.32	116.884315
1953.57	120.26832
1953.82	120.23155
1954.07	114.69527
1954.32	119.7176
1954.57	120.40481
1954.82	119.87617
1955.07	120.30964
1955.32	120.208725
1955.57	119.9802
1955.82	120.26239
1956.07	120.01911
1956.32	119.860306
1956.57	119.9225
1956.82	119.26525
1957.07	119.91086
1957.32	119.268234
1957.57	119.79765
1957.82	119.22616
1958.07	118.51962
1958.32	116.51679
1958.57	119.03182
1958.82	117.8093
1959.07	118.753654
1959.32	116.895744
1959.57	118.700455
1959.82	114.85111
1960.07	118.57771
1960.32	118.88355
1960.57	119.25533
1960.82	119.04396
1961.07	118.90244
1961.32	111.61236
1961.57	117.32477
1961.82	119.06348
1962.07	118.96465
1962.32	117.245445
1962.57	108.50586
1962.82	118.24356
1963.07	116.2142
1963.32	118.05751
1963.57	114.07761
1963.82	116.84864
1964.07	117.936356
1964.32	118.49908
1964.57	118.53806
1964.82	118.434456
1965.07	118.34427
1965.32	118.424385
1965.57	118.39992
1965.82	117.82337
1966.07	118.09514
1966.32	118.17318
1966.57	117.92339
1966.82	117.85336
1967.07	117.75231
1967.32	117.92879
1967.57	116.8919
1967.82	117.90155
1968.07	117.63774
1968.32	117.54959
1968.57	116.62579
1968.82	117.15727
1969.07	117.39932
1969.32	117.5435
1969.57	117.12325
1969.82	117.33197
1970.07	117.213776
1970.32	117.1089
1970.57	117.17497
1970.82	117.01511
1971.07	116.47719
1971.32	116.68011
1971.57	116.79431
1971.82	114.153656
1972.07	112.70593
1972.32	98.15596
1972.57	116.11869
1972.82	116.34097
1973.07	116.43953
1973.32	108.44445
1973.57	115.02548
1973.82	115.73349
1974.07	116.30249
1974.32	116.00432
1974.57	115.98207
1974.82	116.166565
1975.07	115.45972
1975.32	115.898575
1975.57	116.153786
1975.82	116.02724
1976.07	114.83659
1976.32	115.499275
1976.57	115.955826
1976.82	115.7684
1977.07	115.68664
1977.32	115.6462
1977.57	101.86391
1977.82	107.798004
1978.07	114.974304
1978.32	115.45067
1978.57	114.52489
1978.82	115.206085
1979.07	110.197914
1979.32	113.36505
1979.57	115.029305
1979.82	115.09589
1980.07	114.93496
1980.32	115.028496
1980.57	114.786674
1980.82	115.05446
1981.07	114.98875
1981.32	114.63849
1981.57	112.24145
1981.82	114.60486
1982.07	114.66257
1982.32	114.83535
1982.57	114.6138
1982.82	114.630516
1983.07	114.62238
1983.32	114.28155
1983.57	114.63047
1983.82	114.51207
1984.07	114.389885
1984.32	114.38959
1984.57	108.284645
1984.82	113.38685
1985.07	113.875534
1985.32	102.72403
1985.57	109.18694
1985.82	113.7373
1986.07	112.5226
1986.32	104.142166
1986.57	113.577805
1986.82	113.632324
1987.07	113.37669
1987.32	112.73172
1987.57	112.4447
1987.82	113.73158
1988.07	112.19133
1988.32	113.45672
1988.57	113.497856
1988.82	113.484604
1989.07	113.37796
1989.32	113.01057
1989.57	113.28293
1989.82	113.31386
1990.07	113.11355
1990.32	112.5261
1990.57	112.48078
1990.82	112.47097
1991.07	112.782776
1991.32	112.39132
1991.57	112.32271
1991.82	109.591225
1992.07	112.68235
1992.32	111.24905
1992.57	112.36096
1992.82	104.84834
1993.07	112.244835
1993.32	103.20848
1993.57	112.03434
1993.82	112.25893
1994.07	111.98859
1994.32	111.74594
1994.57	111.99764
1994.82	110.801506
1995.07	111.44027
1995.32	111.865074
1995.57	111.64031
1995.82	111.93758
1996.07	107.21447
1996.32	109.85523
1996.57	110.76161
1996.82	111.48955
1997.07	105.553856
1997.32	105.15632
1997.57	110.05718
1997.82	111.03535
1998.07	111.05916
1998.32	111.39102
1998.57	111.5808
1998.82	111.351364
1999.07	111.16012
1999.32	110.974266
1999.57	111.15017
1999.82	111.13481
2000.07	110.80281
2000.32	110.97886
2000.57	111.041046
2000.82	109.46201
2001.07	110.730804
2001.32	110.68017
2001.57	110.89425
2001.82	110.78614
2002.07	109.979126
2002.32	104.49779
2002.57	109.726074
2002.82	110.2202
2003.07	109.82257
2003.32	110.024376
2003.57	106.40582
2003.82	109.17569
2004.07	110.061356
2004.32	109.62391
2004.57	110.10024
2004.82	110.14656
2005.07	103.28259
2005.32	106.74405
2005.57	108.31959
2005.82	109.84067
2006.07	109.66861
2006.32	109.86337
2006.57	109.59988
2006.82	108.8871
2007.07	106.22063
2007.32	109.69772
2007.57	109.683105
2007.82	109.36963
2008.07	108.18562
2008.32	108.86031
2008.57	109.07917
2008.82	109.00459
2009.07	107.83638
2009.32	106.497
2009.57	108.3354
2009.82	108.895905
2010.07	109.17442
2010.32	108.954315
2010.57	108.610085
2010.82	108.43089
2011.07	108.63278
2011.32	108.549164
2011.57	108.69942
2011.82	108.684555
2012.07	108.62352
2012.32	108.418045
2012.57	107.483154
2012.82	107.728874
2013.07	108.40545
2013.32	108.260574
2013.57	104.891846
2013.82	106.6953
2014.07	107.91763
2014.32	107.12355
2014.57	107.8972
2014.82	107.781555
2015.07	107.20407
2015.32	108.13464
2015.57	107.85293
2015.82	107.90574
2016.07	107.90688
2016.32	107.68113
2016.57	107.56226
2016.82	107.423386
2017.07	107.3111
2017.32	106.86014
2017.57	107.60209
2017.82	107.4343
2018.07	107.471535
2018.32	107.36453
2018.57	106.950806
2018.82	105.1244
2019.07	107.30694
2019.32	106.78488
2019.57	106.86151
2019.82	105.696915
2020.07	106.93531
2020.32	105.45585
2020.57	100.21046
2020.82	101.636765
2021.07	106.07075
2021.32	106.409195
2021.57	106.51139
2021.82	106.4064
2022.07	106.30487
2022.32	106.039116
2022.57	106.41733
2022.82	105.191345
2023.07	103.10875
2023.32	105.44267
2023.57	106.40703
2023.82	105.73918
2024.07	101.9196
2024.32	105.83182
2024.57	106.06719
2024.82	105.90768
2025.07	105.58338
2025.32	106.10497
2025.57	105.70527
2025.82	106.0199
2026.07	106.0126
2026.32	100.66052
2026.57	105.69736
2026.82	103.61369
2027.07	105.636826
2027.32	104.703224
2027.57	104.79579
2027.82	105.6136
2028.07	102.90676
2028.32	104.747055
2028.57	105.384285
2028.82	104.7856
2029.07	104.266594
2029.32	104.05676
2029.57	97.39259
2029.82	104.35029
2030.07	97.85491
2030.32	102.77753
2030.57	104.839516
2030.82	105.12088
2031.07	104.86683
2031.32	104.81239
2031.57	104.60257
2031.82	104.64792
2032.07	104.61775
2032.32	104.51828
2032.57	104.34086
2032.82	103.72138
2033.07	104.27205
2033.32	104.28693
2033.57	104.32675
2033.82	103.60843
2034.07	102.86614
2034.32	96.67553
2034.57	100.408295
2034.82	104.18914
2035.07	101.49237
2035.32	103.90016
2035.57	104.00186
2035.82	104.17995
2036.07	103.59621
2036.32	102.13316
2036.57	103.51425
2036.82	103.500015
2037.07	103.66883
2037.32	101.763794
2037.57	100.221695
2037.82	95.70163
2038.07	102.15761
2038.32	99.67195
2038.57	103.06924
2038.82	103.20627
2039.07	103.49343
2039.32	103.60599
2039.57	102.889725
2039.82	103.23884
2040.07	102.98379
2040.32	100.195885
2040.57	102.06322
2040.82	102.81267
2041.07	98.977135
2041.32	100.71774
2041.57	101.31271
2041.82	102.53653
2042.07	102.41952
2042.32	102.13319
2042.57	102.59342
2042.82	102.743065
2043.07	102.23141
2043.32	102.88585
2043.57	102.76916
2043.82	102.61394
2044.07	102.529335
2044.32	102.45427
2044.57	101.695366
2044.82	102.00799
2045.07	101.73721
2045.32	101.92719
2045.57	102.1445
2045.82	102.27342
2046.07	102.19937
2046.32	102.04935
2046.57	102.213486
2046.82	100.65791
2047.07	102.07424
2047.32	100.869026
2047.57	101.462906
2047.82	101.79757
2048.07	101.67891
2048.32	102.012695
2048.57	101.725914
2048.82	101.812485
2049.07	101.54242
2049.32	101.56055
2049.57	101.562515
2049.82	101.47369
2050.07	101.5062
2050.32	101.5084
2050.57	101.375465
2050.82	101.23084
2051.07	100.19403
2051.32	101.350395
2051.57	100.74194
2051.82	100.34844
2052.07	95.25852
2052.32	98.68659
2052.57	100.75626
2052.82	100.84034
2053.07	100.445786
2053.32	100.844505
2053.57	100.704056
2053.82	97.883514
2054.07	100.58021
2054.32	100.54724
2054.57	100.48294
2054.82	100.69353
2055.07	100.60428
2055.32	99.66203
2055.57	100.51468
2055.82	100.205986
2056.07	100.450935
2056.32	100.21164
2056.57	100.03089
2056.82	99.39945
2057.07	100.21506
2057.32	100.01805
2057.57	100.0152
2057.82	100.06824
2058.07	100.10396
2058.32	99.33364
2058.57	95.55121
2058.82	99.71181
2059.07	99.95956
2059.32	98.851
2059.57	98.98246
2059.82	97.20833
2060.07	97.13545
2060.32	89.162094
2060.57	98.81042
2060.82	99.396866
2061.07	99.26933
2061.32	99.484695
2061.57	97.738045
2061.82	99.25824
2062.07	99.15689
2062.32	99.15263
2062.57	98.93177
2062.82	96.67893
2063.07	79.84119
2063.32	88.25487
2063.57	98.226944
2063.82	98.889786
2064.07	98.85749
2064.32	97.99434
2064.57	98.62619
2064.82	98.64336
2065.07	98.57965
2065.32	98.798065
2065.57	98.80049
2065.82	98.441086
2066.07	98.388336
2066.32	98.40974
2066.57	96.61964
2066.82	96.5007
2067.07	93.994095
2067.32	94.28197
2067.57	96.44363
2067.82	96.69262
2068.07	97.446106
2068.32	98.17595
2068.57	98.22205
2068.82	97.71686
2069.07	97.74955
2069.32	96.94008
2069.57	97.66249
2069.82	87.193405
2070.07	96.928444
2070.32	97.28756
2070.57	97.42549
2070.82	95.449104
2071.07	97.37693
2071.32	96.617325
2071.57	94.96733
2071.82	96.09719
2072.07	97.34234
2072.32	96.74881
2072.57	97.56984
2072.82	97.60974
2073.07	96.68083
2073.32	96.359695
2073.57	95.14863
2073.82	96.56318
2074.07	97.02209
2074.32	96.89721
2074.57	97.035
2074.82	96.79901
2075.07	96.04003
2075.32	97.10034
2075.57	95.40753
2075.82	95.40054
2076.07	96.5783
2076.32	93.389786
2076.57	95.30442
2076.82	91.99573
2077.07	92.068054
2077.32	95.67418
2077.57	95.74095
2077.82	96.36376
2078.07	96.48825
2078.32	96.3956
2078.57	96.457375
2078.82	96.28811
2079.07	96.39723
2079.32	96.12771
2079.57	96.09886
2079.82	95.31766
2080.07	94.23288
2080.32	94.341415
2080.57	96.04947
2080.82	96.15343
2081.07	95.83847
2081.32	95.47182
2081.57	96.00729
2081.82	95.4309
2082.07	94.94064
2082.32	95.13737
2082.57	95.38552
2082.82	91.32572
2083.07	94.994514
2083.32	90.439835
2083.57	94.78433
2083.82	95.0927
2084.07	89.74044
2084.32	94.43413
2084.57	94.02472
2084.82	95.218925
2085.07	94.51996
2085.32	95.399994
2085.57	94.86798
2085.82	95.1631
2086.07	94.35059
2086.32	95.21864
2086.57	94.69414
2086.82	93.93309
2087.07	94.58156
2087.32	94.92845
2087.57	94.233154
2087.82	93.29492
2088.07	94.42659
2088.32	94.27339
2088.57	94.29005
2088.82	94.8667
2089.07	92.37004
2089.32	93.57209
2089.57	94.48117
2089.82	94.63998
2090.07	94.404686
2090.32	94.47372
2090.57	93.95074
2090.82	94.28985
2091.07	94.380684
2091.32	94.04514
2091.57	89.48586
2091.82	84.3447
2092.07	93.99116
2092.32	94.25406
2092.57	91.77565
2092.82	94.0473
2093.07	94.0222
2093.32	93.29202
2093.57	94.067726
2093.82	93.20385
2094.07	94.04654
2094.32	93.938835
2094.57	93.74936
2094.82	93.17923
2095.07	93.481384
2095.32	93.79071
2095.57	92.97003
2095.82	93.28381
2096.07	93.37077
2096.32	90.73933
2096.57	93.54082
2096.82	93.59475
2097.07	93.387924
2097.32	90.863075
2097.57	93.458244
2097.82	93.31653
2098.07	92.9469
2098.32	92.81781
2098.57	91.498634
2098.82	92.27434
2099.07	91.28323
2099.32	92.84779
2099.57	92.96993
2099.82	93.04417
2100.07	93.06865
2100.32	92.867775
2100.57	89.98605
2100.82	92.70435
2101.07	92.09106
2101.32	91.97205
2101.57	92.49862
2101.82	91.4758
2102.07	92.57878
2102.32	88.33955
2102.57	92.351944
2102.82	92.5741
2103.07	92.39227
2103.32	92.5547
2103.57	92.54673
2103.82	92.44524
2104.07	92.36073
2104.32	92.25121
2104.57	92.193726
2104.82	92.22726
2105.07	92.21093
2105.32	92.097916
2105.57	91.79923
2105.82	91.33312
2106.07	90.19802
2106.32	91.7179
2106.57	91.320435
2106.82	91.03275
2107.07	91.02565
2107.32	89.748116
2107.57	90.94937
2107.82	91.53148
2108.07	91.37225
2108.32	91.47599
2108.57	90.88768
2108.82	91.44412
2109.07	91.41777
2109.32	84.044586
2109.57	90.29244
2109.82	91.40159
2110.07	91.451584
2110.32	91.21559
2110.57	89.92593
2110.82	91.29803
2111.07	90.948105
2111.32	90.358826
2111.57	91.13801
2111.82	90.98962
2112.07	91.06412
2112.32	89.80615
2112.57	90.35231
2112.82	90.58076
2113.07	90.81418
2113.32	90.752106
2113.57	90.44082
2113.82	88.11185
2114.07	89.801674
2114.32	90.71145
2114.57	90.67317
2114.82	90.27377
2115.07	90.45177
2115.32	90.42801
2115.57	88.44496
2115.82	90.27996
2116.07	90.04588
2116.32	80.4861
2116.57	89.16244
2116.82	89.91039
2117.07	90.05439
2117.32	89.74449
2117.57	89.110634
2117.82	89.58708
2118.07	89.988014
2118.32	89.7529
2118.57	87.58833
2118.82	85.19264
2119.07	84.55185
2119.32	87.13478
2119.57	88.43196
2119.82	88.10028
2120.07	89.42348
2120.32	89.59114
2120.57	89.708145
2120.82	89.214554
2121.07	86.60492
2121.32	87.73213
2121.57	88.8205
2121.82	88.46504
2122.07	89.06152
2122.32	87.76143
2122.57	86.6695
2122.82	88.74348
2123.07	84.53163
2123.32	84.0349
2123.57	87.949745
2123.82	87.230194
2124.07	88.895195
2124.32	88.691444
2124.57	88.698456
2124.82	88.95356
2125.07	88.9862
2125.32	88.66364
2125.57	88.89446
2125.82	86.89354
2126.07	83.10507
2126.32	88.65708
2126.57	88.63755
2126.82	88.63282
2127.07	88.600426
2127.32	88.602005
2127.57	86.37269
2127.82	86.59686
2128.07	88.424805
2128.32	88.372116
2128.57	88.38071
2128.82	87.95897
2129.07	88.30153
2129.32	88.23016
2129.57	85.37071
2129.82	87.979515
2130.07	88.3007
2130.32	88.10455
2130.57	87.89097
2130.82	87.971535
2131.07	88.23549
2131.32	88.097115
2131.57	87.89214
2131.82	87.77133
2132.07	85.9944
2132.32	87.77839
2132.57	87.800026
2132.82	87.911064
2133.07	87.756584
2133.32	87.64118
2133.57	87.07266
2133.82	87.53114
2134.07	87.403305
2134.32	87.48508
2134.57	87.549965
2134.82	87.49246
2135.07	87.3145
2135.32	79.04459
2135.57	85.087006
2135.82	87.39499
2136.07	87.42942
2136.32	87.227165
2136.57	87.20344
2136.82	86.94897
2137.07	87.18953
2137.32	86.95942
2137.57	87.01557
2137.82	87.0755
2138.07	86.80134
2138.32	86.91965
2138.57	86.68639
2138.82	85.02142
2139.07	86.94329
2139.32	86.677536
2139.57	86.63492
2139.82	86.72791
2140.07	86.70253
2140.32	86.43098
2140.57	86.55216
2140.82	86.565506
2141.07	86.36485
2141.32	86.59583
2141.57	86.56498
2141.82	86.415245
2142.07	86.523315
2142.32	86.40918
2142.57	86.30435
2142.82	83.01266
2143.07	86.212326
2143.32	86.01764
2143.57	86.05235
2143.82	85.73707
2144.07	84.66094
2144.32	85.701866
2144.57	86.014114
2144.82	86.01965
2145.07	85.27324
2145.32	84.38924
2145.57	85.42503
2145.82	83.501625
2146.07	85.28728
2146.32	85.792046
2146.57	85.59627
2146.82	85.72663
2147.07	85.49904
2147.32	85.46687
2147.57	85.53972
2147.82	85.667046
2148.07	85.161446
2148.32	85.23945
2148.57	85.27451
2148.82	85.22238
2149.07	84.27074
2149.32	85.345184
2149.57	85.2538
2149.82	84.76081
2150.07	85.27838
2150.32	85.222534
2150.57	84.97227
2150.82	85.047905
2151.07	85.00733
2151.32	84.97063
2151.57	84.50151
2151.82	84.915504
2152.07	84.61682
2152.32	82.80185
2152.57	84.558044
2152.82	84.374054
2153.07	84.332794
2153.32	83.61586
2153.57	83.693344
2153.82	84.099
2154.07	84.17694
2154.32	84.17133
2154.57	83.71349
2154.82	84.29671
2155.07	84.114235
2155.32	83.96478
2155.57	84.30271
2155.82	84.115845
2156.07	84.100105
2156.32	83.70955
2156.57	83.75177
2156.82	83.74979
2157.07	83.590195
2157.32	83.714516
2157.57	83.716705
2157.82	83.60221
2158.07	83.62426
2158.32	83.437614
2158.57	82.393555
2158.82	83.18543
2159.07	83.164856
2159.32	82.54712
2159.57	82.864456
2159.82	82.809105
2160.07	82.75623
2160.32	82.75138
2160.57	82.59124
2160.82	82.380035
2161.07	81.85658
2161.32	80.452255
2161.57	81.4664
2161.82	81.374596
2162.07	81.606384
2162.32	81.33026
2162.57	80.870255
2162.82	80.75074
2163.07	80.52188
2163.32	80.107056
2163.57	79.63983
2163.82	79.117615
2164.07	78.35842
2164.32	76.80751
2164.57	76.55145
2164.82	75.06422
2165.07	73.01354
2165.32	68.86906
2165.57	65.19797
2165.82	71.03501
2166.07	74.07488
2166.32	75.73437
2166.57	76.70301
2166.82	77.69847
2167.07	78.06168
2167.32	77.20061
2167.57	77.98901
2167.82	79.412384
2168.07	79.967575
2168.32	79.72188
2168.57	80.18718
2168.82	79.650826
2169.07	79.26994
2169.32	80.206184
2169.57	80.83409
2169.82	79.896034
2170.07	80.72221
2170.32	81.027466
2170.57	81.16283
2170.82	81.18251
2171.07	81.2848
2171.32	79.60147
2171.57	80.964676
2171.82	81.19846
2172.07	81.56132
2172.32	81.34223
2172.57	81.34645
2172.82	81.14646
2173.07	81.4837
2173.32	81.46102
2173.57	80.340485
2173.82	80.95332
2174.07	80.486694
2174.32	80.81554
2174.57	80.5927
2174.82	80.79907
2175.07	80.96101
2175.32	80.77508
2175.57	80.476875
2175.82	80.68928
2176.07	77.57178
2176.32	80.62599
2176.57	80.66265
2176.82	80.97184
2177.07	81.24501
2177.32	81.16318
2177.57	80.5107
2177.82	76.442505
2178.07	73.47946
2178.32	79.72854
2178.57	80.94174
2178.82	79.57037
2179.07	80.91597
2179.32	80.77756
2179.57	80.93281
2179.82	81.06868
2180.07	81.02728
2180.32	80.92497
2180.57	80.831085
2180.82	80.87142
2181.07	80.864746
2181.32	80.57041
2181.57	80.551956
2181.82	78.50055
2182.07	74.26124
2182.32	79.64087
2182.57	80.30188
2182.82	80.67887
2183.07	80.57304
2183.32	80.089584
2183.57	80.50873
2183.82	80.01595
2184.07	80.283775
2184.32	80.53018
2184.57	80.24782
2184.82	80.35583
2185.07	80.17009
2185.32	80.18639
2185.57	80.29136
2185.82	79.75727
2186.07	80.08649
2186.32	80.12102
2186.57	79.88921
2186.82	80.11318
2187.07	80.06237
2187.32	76.791756
2187.57	79.279396
2187.82	72.98965
2188.07	75.74243
2188.32	79.73934
2188.57	79.92503
2188.82	79.80623
2189.07	79.76688
2189.32	79.635765
2189.57	76.898926
2189.82	78.92354
2190.07	79.43589
2190.32	79.11607
2190.57	79.60896
2190.82	79.20773
2191.07	79.08477
2191.32	79.41472
2191.57	79.373566
2191.82	79.54377
2192.07	79.538506
2192.32	79.49243
2192.57	79.0236
2192.82	79.395706
2193.07	79.25339
2193.32	78.80701
2193.57	79.20741
2193.82	78.91728
2194.07	79.00608
2194.32	76.75539
2194.57	79.03041
2194.82	78.91885
2195.07	78.93408
2195.32	78.96369
2195.57	78.686584
2195.82	79.01298
2196.07	78.94917
2196.32	78.65137
2196.57	78.45771
2196.82	78.73065
2197.07	78.75034
2197.32	78.56165
2197.57	78.55638
2197.82	78.715775
2198.07	78.46675
2198.32	78.47761
2198.57	78.55786
2198.82	78.49318
2199.07	78.61933
2199.32	77.67602
2199.57	77.49869
2199.82	78.1136
2200.07	78.364746
2200.32	78.29447
2200.57	77.947586
2200.82	78.2066
2201.07	77.86756
2201.32	77.85325
2201.57	77.92874
2201.82	78.04488
2202.07	77.8307
2202.32	77.939964
2202.57	77.859886
2202.82	77.81781
2203.07	77.95958
2203.32	76.062645
2203.57	77.9272
2203.82	77.94763
2204.07	75.29929
2204.32	77.55528
2204.57	77.66263
2204.82	77.50489
2205.07	77.46876
2205.32	77.184746
2205.57	69.08471
2205.82	76.39876
2206.07	75.77795
2206.32	66.98492
2206.57	76.797806
2206.82	77.41427
2207.07	77.39926
2207.32	75.10964
2207.57	77.3652
2207.82	77.38152
2208.07	76.910126
2208.32	70.4448
2208.57	76.920685
2208.82	77.12257
2209.07	77.08377
2209.32	77.2451
2209.57	76.93062
2209.82	76.8566
2210.07	76.733795
2210.32	76.77228
2210.57	76.05024
2210.82	76.80376
2211.07	76.21838
2211.32	76.29627
2211.57	76.79886
2211.82	76.032555
2212.07	76.89688
2212.32	76.90474
2212.57	76.70267
2212.82	76.75047
2213.07	76.84574
2213.32	76.61309
2213.57	76.66276
2213.82	76.70865
2214.07	76.550835
2214.32	76.30767
2214.57	76.41492
2214.82	76.444336
2215.07	76.24185
2215.32	76.49492
2215.57	74.730576
2215.82	76.32399
2216.07	72.83189
2216.32	76.21655
2216.57	73.962135
2216.82	75.21107
2217.07	76.06744
2217.32	76.132645
2217.57	76.13028
2217.82	75.420616
2218.07	76.120895
2218.32	76.060265
2218.57	76.131454
2218.82	76.024
2219.07	76.01419
2219.32	75.91922
2219.57	75.80762
2219.82	75.54482
2220.07	75.824684
2220.32	75.81225
2220.57	75.78645
2220.82	75.58219
2221.07	75.37209
2221.32	75.73266
2221.57	75.63182
2221.82	75.54042
2222.07	75.6535
2222.32	75.66092
2222.57	75.425026
2222.82	75.31609
2223.07	75.50794
2223.32	75.04618
2223.57	75.427765
2223.82	75.398926
2224.07	75.12608
2224.32	74.83398
2224.57	75.21822
2224.82	75.31211
2225.07	75.28231
2225.32	74.94514
2225.57	74.694626
2225.82	72.20635
2226.07	72.49124
2226.32	75.078865
2226.57	75.08784
2226.82	74.88132
2227.07	75.0245
2227.32	74.40493
2227.57	74.89091
2227.82	72.630745
2228.07	74.7064
2228.32	74.8767
2228.57	74.7989
2228.82	74.73318
2229.07	74.764465
2229.32	74.64157
2229.57	74.65452
2229.82	73.15555
2230.07	74.46052
2230.32	74.43749
2230.57	74.5535
2230.82	73.95419
2231.07	74.358536
2231.32	74.48186
2231.57	74.39975
2231.82	74.40767
2232.07	73.829666
2232.32	74.18832
2232.57	74.36928
2232.82	74.17539
2233.07	74.213234
2233.32	74.26316
2233.57	73.64274
2233.82	74.18541
2234.07	74.01253
2234.32	73.920395
2234.57	73.76253
2234.82	73.996346
2235.07	74.03317
2235.32	73.923775
2235.57	73.906494
2235.82	73.90013
2236.07	73.90183
2236.32	73.91269
2236.57	73.77618
2236.82	73.71054
2237.07	73.71155
2237.32	73.77807
2237.57	72.80455
2237.82	73.561714
2238.07	69.34699
2238.32	73.20786
2238.57	72.28115
2238.82	73.49839
2239.07	73.47054
2239.32	71.65183
2239.57	73.43907
2239.82	73.39295
2240.07	73.43564
2240.32	73.39971
2240.57	73.30628
2240.82	73.13507
2241.07	73.311165
2241.32	72.99789
2241.57	73.00802
2241.82	73.1687
2242.07	70.45142
2242.32	72.836296
2242.57	72.821915
2242.82	72.89193
2243.07	73.03802
2243.32	72.99771
2243.57	72.734955
2243.82	72.444145
2244.07	72.832115
2244.32	72.8179
2244.57	72.93775
2244.82	72.78207
2245.07	72.765205
2245.32	72.57387
2245.57	72.61656
2245.82	72.759056
2246.07	72.560265
2246.32	72.687836
2246.57	72.609726
2246.82	72.56057
2247.07	72.39898
2247.32	67.242676
2247.57	72.38432
2247.82	71.93366
2248.07	72.337585
2248.32	72.1849
2248.57	72.430084
2248.82	72.35144
2249.07	72.332954
2249.32	71.59052
2249.57	72.20912
2249.82	72.26206
2250.07	72.25279
2250.32	72.165924
2250.57	72.10599
2250.82	70.00657
2251.07	71.92679
2251.32	72.052765
2251.57	71.94765
2251.82	70.01181
2252.07	71.854706
2252.32	71.88486
2252.57	70.79428
2252.82	71.932434
2253.07	71.55465
2253.32	71.65921
2253.57	70.741104
2253.82	63.558556
2254.07	71.060905
2254.32	71.503784
2254.57	71.27789
2254.82	71.51515
2255.07	71.38681
2255.32	68.72931
2255.57	71.55676
2255.82	71.41429
2256.07	71.49401
2256.32	69.318054
2256.57	71.092285
2256.82	71.20568
2257.07	70.63854
2257.32	71.393265
2257.57	70.35153
2257.82	71.22579
2258.07	71.2976
2258.32	71.28051
2258.57	71.227844
2258.82	71.15796
2259.07	71.1721
2259.32	71.02986
2259.57	70.87973
2259.82	70.92919
2260.07	71.02141
2260.32	70.99502
2260.57	71.01163
2260.82	68.86522
2261.07	70.852425
2261.32	70.497734
2261.57	70.66078
2261.82	70.58119
2262.07	65.99183
2262.32	70.39647
2262.57	67.991035
2262.82	70.519775
2263.07	70.5482
2263.32	70.6591
2263.57	70.61777
2263.82	70.52408
2264.07	70.57479
2264.32	68.93265
2264.57	70.43237
2264.82	70.475525
2265.07	67.55733
2265.32	69.944984
2265.57	69.90789
2265.82	70.359245
2266.07	70.16775
2266.32	70.24136
2266.57	69.355865
2266.82	70.25293
2267.07	70.25173
2267.32	70.13577
2267.57	69.90817
2267.82	70.12731
2268.07	70.10886
2268.32	70.04679
2268.57	70.095604
2268.82	70.025986
2269.07	69.274956
2269.32	69.889084
2269.57	69.79957
2269.82	69.86865
2270.07	69.73813
2270.32	69.7735
2270.57	69.67491
2270.82	65.4737
2271.07	69.19971
2271.32	69.46389
2271.57	69.2829
2271.82	69.52165
2272.07	69.652084
2272.32	69.58859
2272.57	69.553
2272.82	69.41618
2273.07	69.440025
2273.32	69.4749
2273.57	69.35775
2273.82	69.318245
2274.07	66.37557
2274.32	69.180786
2274.57	69.053024
2274.82	69.037834
2275.07	68.69292
2275.32	69.17385
2275.57	68.76889
2275.82	69.0603
2276.07	68.531525
2276.32	69.053085
2276.57	69.12399
2276.82	69.09423
2277.07	69.04062
2277.32	69.06673
2277.57	68.73575
2277.82	68.92556
2278.07	68.62253
2278.32	68.62765
2278.57	68.68425
2278.82	68.736145
2279.07	68.69176
2279.32	67.99292
2279.57	67.107666
2279.82	68.511055
2280.07	68.56642
2280.32	67.92295
2280.57	66.5593
2280.82	55.558033
2281.07	66.781395
2281.32	67.3239
2281.57	68.37053
2281.82	68.397705
2282.07	66.23855
2282.32	68.386185
2282.57	68.27962
2282.82	68.28525
2283.07	68.23266
2283.32	67.06009
2283.57	68.39255
2283.82	68.373085
2284.07	67.756134
2284.32	68.14821
2284.57	67.16643
2284.82	68.20523
2285.07	68.219574
2285.32	68.18189
2285.57	67.95729
2285.82	66.632675
2286.07	67.90428
2286.32	67.23741
2286.57	68.00822
2286.82	67.82444
2287.07	67.88995
2287.32	67.43206
2287.57	67.778435
2287.82	67.85968
2288.07	67.78915
2288.32	67.61531
2288.57	67.843895
2288.82	66.755936
2289.07	67.52547
2289.32	67.72243
2289.57	67.719406
2289.82	67.6899
2290.07	67.70987
2290.32	67.56061
2290.57	65.912125
2290.82	67.34246
2291.07	67.23964
2291.32	67.38311
2291.57	67.06916
2291.82	67.44797
2292.07	67.39365
2292.32	67.39187
2292.57	67.23606
2292.82	64.68373
2293.07	63.952545
2293.32	65.82847
2293.57	65.35574
2293.82	65.94684
2294.07	65.667206
2294.32	65.92071
2294.57	66.87465
2294.82	66.08195
2295.07	65.90004
2295.32	66.09768
2295.57	65.49111
2295.82	66.64569
2296.07	65.68057
2296.32	66.20241
2296.57	61.686806
2296.82	66.79636
2297.07	66.51427
2297.32	65.83775
2297.57	66.82764
2297.82	65.58382
2298.07	66.65733
2298.32	66.41147
2298.57	65.16809
2298.82	66.51677
2299.07	65.62809
2299.32	66.42409
2299.57	66.652306
2299.82	64.72963
2300.07	66.55673
2300.32	66.66263
2300.57	65.696465
2300.82	66.226555
2301.07	66.48776
2301.32	66.478966
2301.57	65.31556
2301.82	66.46953
2302.07	66.38775
2302.32	64.93131
2302.57	66.329216
2302.82	66.32957
2303.07	66.06622
2303.32	65.131226
2303.57	66.08605
2303.82	66.016945
2304.07	65.24939
2304.32	65.932816
2304.57	65.53615
2304.82	66.02574
2305.07	65.163
2305.32	65.82547
2305.57	66.004425
2305.82	66.04704
2306.07	65.16951
2306.32	65.68129
2306.57	65.78766
2306.82	65.77886
2307.07	65.77078
2307.32	64.91185
2307.57	65.737526
2307.82	65.71999
2308.07	65.762665
2308.32	64.90157
2308.57	65.52367
2308.82	65.703064
2309.07	65.54322
2309.32	64.95337
2309.57	65.35475
2309.82	65.37698
2310.07	65.571304
2310.32	65.30017
2310.57	64.69087
2310.82	65.28764
2311.07	65.30325
2311.32	65.40335
2311.57	65.301834
2311.82	64.63435
2312.07	65.26985
2312.32	65.16776
2312.57	65.24695
2312.82	65.16535
2313.07	64.22217
2313.32	65.16862
2313.57	64.937355
2313.82	65.14558
2314.07	65.1374
2314.32	63.30028
2314.57	62.646366
2314.82	64.91548
2315.07	64.60188
2315.32	64.83882
2315.57	64.70811
2315.82	64.36535
2316.07	64.66594
2316.32	63.221165
2316.57	64.76683
2316.82	64.816086
2317.07	64.170906
2317.32	63.99437
2317.57	64.73212
2317.82	64.61265
2318.07	62.557556
2318.32	64.39804
2318.57	63.98069
2318.82	64.60342
2319.07	64.67706
2319.32	64.411476
2319.57	64.46381
2319.82	64.33054
2320.07	63.985104
2320.32	64.47785
2320.57	64.48195
2320.82	64.357605
2321.07	64.375046
2321.32	64.10864
2321.57	63.994705
2321.82	64.02643
2322.07	59.063816
2322.32	60.957756
2322.57	62.197422
2322.82	62.224003
2323.07	61.743805
2323.32	62.110054
2323.57	63.303505
2323.82	62.87338
2324.07	61.95436
2324.32	63.882862
2324.57	61.60086
2324.82	62.84162
2325.07	61.712387
2325.32	63.85717
2325.57	62.088768
2325.82	63.844242
2326.07	62.38254
2326.32	62.99151
2326.57	63.317963
2326.82	62.567856
2327.07	63.753128
2327.32	62.814182
2327.57	62.83024
2327.82	63.14657
2328.07	61.725544
2328.32	63.636642
2328.57	63.550625
2328.82	61.860153
2329.07	63.580162
2329.32	63.45871
2329.57	61.449654
2329.82	63.49904
2330.07	63.471073
2330.32	62.716652
2330.57	62.42636
2330.82	61.99111
2331.07	63.1975
2331.32	61.302933
2331.57	63.301117
2331.82	63.34073
2332.07	62.643932
2332.32	62.295975
2332.57	63.15556
2332.82	62.61231
2333.07	61.166084
2333.32	62.780228
2333.57	63.141476
2333.82	63.0297
2334.07	61.62345
2334.32	63.028374
2334.57	62.93009
2334.82	57.877876
2335.07	61.28771
2335.32	62.897118
2335.57	62.900253
2335.82	62.913036
2336.07	62.526184
2336.32	61.623993
2336.57	62.55832
2336.82	62.47416
2337.07	62.543556
2337.32	61.283993
2337.57	62.548008
2337.82	56.433453
2338.07	60.636066
2338.32	61.571068
2338.57	61.731125
2338.82	62.57736
2339.07	62.581173
2339.32	62.50688
2339.57	61.353592
2339.82	62.15218
2340.07	61.955345
2340.32	62.448715
2340.57	62.230682
2340.82	61.167534
2341.07	62.06839
2341.32	62.337414
2341.57	62.305466
2341.82	62.310787
2342.07	61.242672
2342.32	61.95584
2342.57	62.074135
2342.82	62.191814
2343.07	62.188194
2343.32	60.98969
2343.57	62.082653
2343.82	61.845055
2344.07	61.86714
2344.32	61.90883
2344.57	61.99385
2344.82	60.944176
2345.07	61.627403
2345.32	61.650818
2345.57	61.868217
2345.82	61.220833
2346.07	60.757767
2346.32	61.791275
2346.57	61.727783
2346.82	61.776676
2347.07	61.7301
2347.32	60.96388
2347.57	60.442726
2347.82	61.43395
2348.07	60.599884
2348.32	61.469616
2348.57	61.240253
2348.82	61.474716
2349.07	60.71937
2349.32	61.59247
2349.57	61.41995
2349.82	60.94841
2350.07	60.916023
2350.32	61.26571
2350.57	60.676254
2350.82	61.459816
2351.07	60.67347
2351.32	61.17737
2351.57	61.32019
2351.82	56.82164
2352.07	57.201515
2352.32	58.589252
2352.57	59.24687
2352.82	59.798256
2353.07	59.35527
2353.32	59.55773
2353.57	59.974533
2353.82	59.196754
2354.07	60.31778
2354.32	59.7048
2354.57	60.27568
2354.82	59.69261
2355.07	60.36664
2355.32	59.066048
2355.57	60.169685
2355.82	59.696445
2356.07	60.884403
2356.32	59.166992
2356.57	57.573112
2356.82	59.978012
2357.07	58.677998
2357.32	59.6932
2357.57	59.57608
2357.82	59.28251
2358.07	60.778217
2358.32	60.017937
2358.57	59.479767
2358.82	60.120766
2359.07	60.13836
2359.32	59.30567
2359.57	60.433556
2359.82	60.040764
2360.07	58.92706
2360.32	60.038525
2360.57	59.630527
2360.82	58.96747
2361.07	59.70789
2361.32	60.390823
2361.57	59.953846
2361.82	59.078068
2362.07	60.278816
2362.32	59.861633
2362.57	59.663128
2362.82	58.86276
2363.07	60.141754
2363.32	60.256584
2363.57	59.80843
2363.82	58.86548
2364.07	60.036057
2364.32	59.842514
2364.57	59.926723
2364.82	58.365078
2365.07	60.099167
2365.32	60.060394
2365.57	59.889275
2365.82	58.46104
2366.07	59.56066
2366.32	59.772835
2366.57	59.921715
2366.82	59.55107
2367.07	58.67543
2367.32	59.320377
2367.57	59.803062
2367.82	59.831333
2368.07	58.056763
2368.32	58.730637
2368.57	59.633842
2368.82	59.72474
2369.07	59.689312
2369.32	57.972946
2369.57	57.953953
2369.82	59.27513
2370.07	59.328346
2370.32	59.567062
2370.57	58.148827
2370.82	59.527916
2371.07	59.46877
2371.32	59.009445
2371.57	59.41212
2371.82	58.132317
2372.07	58.855877
2372.32	58.394157
2372.57	58.93113
2372.82	58.963974
2373.07	57.82757
2373.32	57.731014
2373.57	52.64765
2373.82	54.46839
2374.07	58.122654
2374.32	58.81006
2374.57	57.96273
2374.82	58.72979
2375.07	58.53126
2375.32	59.01421
2375.57	58.877686
2375.82	58.069916
2376.07	58.105522
2376.32	58.736797
2376.57	58.74844
2376.82	58.922497
2377.07	58.899124
2377.32	58.015244
2377.57	58.411182
2377.82	58.68574
2378.07	58.84426
2378.32	58.61125
2378.57	58.657288
2378.82	57.87025
2379.07	58.69706
2379.32	58.544193
2379.57	58.45213
2379.82	58.64038
2380.07	58.68598
2380.32	57.36391
2380.57	58.519558
2380.82	58.48358
2381.07	58.432087
2381.32	58.32411
2381.57	58.527412
2381.82	58.458244
2382.07	57.765785
2382.32	54.19397
2382.57	55.375015
2382.82	55.95775
2383.07	56.108475
2383.32	56.302086
2383.57	54.35813
2383.82	56.59252
2384.07	56.22045
2384.32	54.00686
2384.57	56.302715
2384.82	56.7337
2385.07	56.47303
2385.32	56.640644
2385.57	56.528687
2385.82	52.179813
2386.07	54.88873
2386.32	57.43383
2386.57	57.30037
2386.82	56.734352
2387.07	56.8074
2387.32	56.715958
2387.57	57.75831
2387.82	57.476105
2388.07	56.670273
2388.32	57.678547
2388.57	56.710785
2388.82	56.04916
2389.07	57.655396
2389.32	57.224022
2389.57	56.701485
2389.82	57.34242
2390.07	57.235332
2390.32	56.53879
2390.57	57.001846
2390.82	57.69321
2391.07	57.276096
2391.32	56.58008
2391.57	57.11571
2391.82	57.120674
2392.07	56.554184
2392.32	55.891754
2392.57	56.724888
2392.82	56.985786
2393.07	56.398697
2393.32	57.528374
2393.57	57.51478
2393.82	56.729603
2394.07	56.315704
2394.32	56.649555
2394.57	57.12963
2394.82	56.75731
2395.07	56.279076
2395.32	55.90925
2395.57	57.297855
2395.82	57.11905
2396.07	55.71595
2396.32	56.961422
2396.57	57.13312
2396.82	56.98855
2397.07	56.73104
2397.32	55.19387
2397.57	56.892746
2397.82	57.01877
2398.07	56.603016
2398.32	56.656273
2398.57	55.969543
2398.82	56.830936
2399.07	56.833054
2399.32	55.678524
2399.57	55.567318
2399.82	54.58572
