wavelength	flux
1.57	0.03429292
1.82	0.06070766
2.0700002	0.04784592
2.3200002	0.07841602
2.5700002	0.012732403
2.8200002	0.04550204
3.0700002	0.042205676
3.3200002	0.09047217
3.5700002	0.0612787
3.8200002	0.06554699
4.07	0.11987653
4.32	0.09108115
4.57	0.06510284
4.82	0.09960878
5.07	0.111424044
5.32	0.08827598
5.57	0.14181206
5.82	0.099533856
6.07	0.13173485
6.32	0.13132189
6.5699997	0.08154531
6.8199997	0.07598706
7.0699997	0.11978337
7.3199997	0.10771633
7.5699997	0.10172341
7.8199997	0.064843364
8.07	0.071933284
8.32	0.11816172
8.57	0.06225826
8.82	0.07929419
9.07	0.06781734
9.32	0.066525534
9.57	0.074995086
9.82	0.06643122
10.07	0.14221494
10.32	0.18065639
10.57	0.11541039
10.82	0.08875132
11.07	0.08431332
11.32	0.08683942
11.57	0.08853991
11.82	0.071495436
12.07	0.059982482
12.32	0.082155325
12.57	0.051021
12.82	0.036409132
13.07	0.071450405
13.32	0.052950826
13.57	0.07175394
13.82	0.053686865
14.07	0.08285293
14.32	0.080988325
14.57	0.09064261
14.82	0.2749149
15.07	0.11510646
15.32	0.18025482
15.57	0.06607472
15.82	0.109175734
16.07	0.10600577
16.32	0.117798865
16.57	0.08125554
16.82	0.36520427
17.07	1.8272501
17.32	0.7294564
17.57	0.9509015
17.82	0.74942756
18.07	1.2820048
18.32	0.40447086
18.57	0.5920769
18.82	1.2520976
19.07	0.4579423
19.32	1.3617048
19.57	1.1380954
19.82	0.32204357
20.07	0.7923161
20.32	0.9581517
20.57	0.23116478
20.82	0.3280635
21.07	0.7846569
21.32	0.21451183
21.57	0.1947578
21.82	0.37343606
22.07	0.4461075
22.32	0.40332568
22.57	0.5298236
22.82	0.35824555
23.07	0.13937448
23.32	0.21323445
23.57	0.17793229
23.82	0.18072528
24.07	0.29978073
24.32	0.42696133
24.57	0.2583854
24.82	0.16611524
25.07	0.20418361
25.32	0.26339328
25.57	0.6986002
25.820002	0.7766584
26.070002	0.25139993
26.320002	0.15602523
26.570002	0.2843895
26.820002	0.06485355
27.070002	0.2014178
27.320002	0.30862236
27.570002	0.2641116
27.820002	0.23140454
28.070002	0.11369173
28.320002	0.79094684
28.570002	0.6633378
28.820002	0.06669724
29.070002	0.14294642
29.320002	0.14369974
29.570002	0.17096287
29.820002	0.045347508
30.070002	0.14420056
30.320002	3.8570466
30.570002	0.61786443
30.820002	0.11742554
31.070002	0.051165182
31.320002	0.18063419
31.570002	0.2592165
31.820002	0.15309188
32.070004	0.19263887
32.320004	0.055933442
32.570004	0.042746812
32.820004	0.078968376
33.070004	0.041980185
33.320004	0.29605553
33.570004	0.6183872
33.820004	0.100028664
34.070004	0.12235239
34.570004	0.24211529
34.820004	0.14936809
35.070004	0.14191854
35.320004	0.13494214
35.570004	0.06202877
35.820004	0.22304761
36.070004	0.07574369
36.320004	0.15360622
36.570004	0.39519954
36.820004	0.24996482
37.070004	0.010355065
37.320004	0.01610739
38.070004	0.031321798
38.320004	0.04999815
39.320004	0.0034107908
39.820004	0.032677274
40.070004	0.058489956
41.070004	0.01942211
41.320004	0.012594373
41.570004	0.075101845
41.820004	0.018945388
42.070004	0.0014914466
42.570004	0.012232078
42.820004	0.040155567
43.070004	0.042857192
43.320004	0.04651284
43.570004	0.08503704
43.820004	0.0057783322
44.320004	0.013064977
44.570004	0.023545131
44.820004	0.01884255
45.070004	0.00220898
45.320004	0.033166993
45.570004	0.013058804
45.820004	0.016613536
46.070004	0.020656584
46.320004	0.08402905
46.570004	0.09791639
46.820004	0.026002703
47.070004	0.025560025
47.820004	0.02066268
48.070004	0.033368748
48.320004	0.024963018
48.570004	0.03127738
48.820004	0.029867023
49.070004	0.030931294
49.320004	0.008507382
49.570004	0.047975983
49.820004	0.1547136
50.070004	0.049827285
50.320004	0.011089275
50.570004	0.011089275
50.820004	0.011089275
51.070004	0.011089275
51.320004	0.011089275
51.570004	0.011089275
51.820004	0.011089275
52.070004	0.011089275
52.320004	0.011089275
52.570004	0.011089275
52.820004	0.011089275
53.070004	0.011089275
53.320004	0.011089275
53.570004	0.011089275
53.820004	0.011089275
54.070004	0.011089275
54.320004	0.011089275
54.570004	0.011089275
54.820004	0.011089275
55.070004	0.027046157
55.320004	0.03154682
55.570004	0.03154682
55.820004	0.03154682
56.070004	0.03154682
56.320004	0.03154682
56.570004	0.03154682
56.820004	0.03154682
57.070004	0.03154682
57.320004	0.03154682
57.570004	0.03154682
57.820004	0.03154682
58.070004	0.03154682
58.320004	0.03154682
58.570004	0.03154682
58.820004	0.03154682
59.070004	0.03154682
59.320004	0.03154682
59.570004	0.03154682
59.820004	0.03154682
60.070004	0.03154682
60.320004	0.03154682
60.570004	0.03154682
60.820004	0.03154682
61.070004	0.03154682
61.320004	0.03154682
61.570004	0.03154682
61.820004	0.03154682
62.070004	0.03154682
62.320004	0.03154682
62.570004	0.03154682
62.820004	0.03154682
63.070004	0.03154682
63.320004	0.03154682
63.570004	0.03154682
63.820004	0.03154682
64.07	0.03154682
64.32	0.03154682
64.57	0.03154682
64.82	0.03154682
65.07	0.026719755
65.32	0.02535827
65.57	0.02535827
65.82	0.02535827
66.07	0.02535827
66.32	0.02535827
66.57	0.02535827
66.82	0.02535827
67.07	0.02535827
67.32	0.02535827
67.57	0.02535827
67.82	0.02535827
68.07	0.02535827
68.32	0.02535827
68.57	0.02535827
68.82	0.02535827
69.07	0.02535827
69.32	0.02535827
69.57	0.02535827
69.82	0.02535827
70.07	0.02535827
70.32	0.02535827
70.57	0.02535827
70.82	0.02535827
71.07	0.02535827
71.32	0.02535827
71.57	0.02535827
71.82	0.02535827
72.07	0.02535827
72.32	0.02535827
72.57	0.02535827
72.82	0.02535827
73.07	0.02535827
73.32	0.02535827
73.57	0.02535827
73.82	0.02535827
74.07	0.02535827
74.32	0.02535827
74.57	0.02535827
74.82	0.02535827
75.07	0.041113216
75.32	0.045556918
75.57	0.045556918
75.82	0.045556918
76.07	0.045556918
76.32	0.045556918
76.57	0.045556918
76.82	0.045556918
77.07	0.045556918
77.32	0.045556918
77.57	0.045556918
77.82	0.045556918
78.07	0.045556918
78.32	0.045556918
78.57	0.045556918
78.82	0.045556918
79.07	0.045556918
79.32	0.045556918
79.57	0.045556918
79.82	0.045556918
80.07	0.045556918
80.32	0.045556918
80.57	0.045556918
80.82	0.045556918
81.07	0.045556918
81.32	0.045556918
81.57	0.045556918
81.82	0.045556918
82.07	0.045556918
82.32	0.045556918
82.57	0.045556918
82.82	0.045556918
83.07	0.045556918
83.32	0.045556918
83.57	0.045556918
83.82	0.045556918
84.07	0.045556918
84.32	0.045556918
84.57	0.045556918
84.82	0.045556918
85.07	0.045556918
85.32	0.045556918
85.57	0.058062933
85.82	0.07846749
86.07	0.07846749
86.32	0.07846749
86.57	0.07846749
86.82	0.07846749
87.07	0.07846749
87.32	0.07846749
87.57	0.07846749
87.82	0.07846749
88.07	0.07846749
88.32	0.07846749
88.57	0.07846749
88.82	0.07846749
89.07	0.07846749
89.32	0.07846749
89.57	0.07846749
89.82	0.07846749
90.07	0.07846749
90.32	0.07846749
90.57	0.07846749
90.82	0.07846749
91.07	0.07846749
91.32	0.07846749
91.57	0.07846749
91.82	0.07846749
92.07	0.07846749
92.32	0.07846749
92.57	0.07846749
92.82	0.07846749
93.07	0.07846749
93.32	0.07846749
93.57	0.07846749
93.82	0.07846749
94.07	0.07846749
94.32	0.07846749
94.57	0.07846749
94.82	0.07846749
95.07	0.07846749
95.32	0.07846749
95.57	0.07846749
95.82	0.07846749
96.07	0.07846749
96.32	0.07846749
96.57	0.07846749
96.82	0.07846749
97.07	0.057123065
97.32	0.02229794
97.57	0.02229794
97.82	0.02229794
98.07	0.02229794
98.32	0.02229794
98.57	0.02229794
98.82	0.02229794
99.07	0.02229794
99.32	0.02229794
99.57	0.02229794
99.82	0.02229794
100.07	0.02229794
100.32	0.02229794
100.57	0.02229794
100.82	0.02229794
101.07	0.02229794
101.32	0.02229794
101.57	0.02229794
101.82	0.02229794
102.07	0.02229794
102.32	0.02229794
102.57	0.02229794
102.82	0.02229794
103.07	0.14411165
103.32	0.13603012
103.57	0.023564471
103.82	0.04147102
104.07	0.013300306
104.57	0.017094802
104.82	0.01504344
105.32	0.0013440424
105.57	0.049479175
105.82	0.038817182
106.07	0.07182153
106.32	0.03235619
106.57	0.013395678
106.82	0.01523506
107.07	0.025653867
107.32	0.03312873
107.57	0.007400902
107.82	0.01782965
108.07	0.028259087
108.32	0.010257427
108.57	0.052102316
108.82	0.0039044756
109.32	0.013411928
109.57	0.018416524
109.82	0.010571211
110.07	0.021919122
110.32	0.034928
110.57	0.0132017415
111.32	0.023767902
111.57	0.016868792
111.82	0.00889918
112.07	0.012113983
112.32	0.018642131
112.57	0.0041388227
112.82	0.021300634
113.07	0.0020403813
113.32	0.0040507205
113.57	0.0072791837
113.82	0.0090787215
114.07	0.012519846
114.32	0.014223014
114.57	0.011472221
114.82	0.011220449
115.07	0.0096866125
115.32	0.014837942
115.57	0.026941638
115.82	0.020437993
116.07	0.019597635
116.32	0.019434562
116.57	0.037281357
116.82	0.033735257
117.07	0.031070817
117.32	0.018869083
117.57	0.20959346
117.82	0.017855218
118.07	0.012438771
118.32	0.014774714
118.57	0.016847081
118.82	0.021251444
119.07	0.031252835
119.32	0.03750869
119.57	0.024313284
119.82	0.033735864
120.07	0.040460497
120.32	0.025045723
120.57	0.36877328
120.82	0.034707226
121.07	0.0022773955
121.32	0.28259334
121.57	19.267462
121.82	0.27262157
122.07	0.025609305
122.32	0.027292788
122.57	0.020816173
122.82	0.0204022
123.07	0.016759137
123.32	0.015157423
123.57	0.014844694
123.82	0.06770897
124.07	0.016630182
124.32	0.04337112
124.57	0.0124224555
124.82	0.015334707
125.07	0.013202242
125.32	0.019883323
125.57	0.017827598
125.82	0.024909746
126.07	0.03498716
126.32	0.008203323
126.57	0.07257336
126.82	0.010158254
127.07	0.009755111
127.32	0.008618263
127.57	0.021938764
127.82	0.018770088
128.06999	0.014776999
128.31999	0.007699544
128.56999	0.007155209
128.81999	0.018308388
129.06999	0.013305839
129.31999	0.009112341
129.56999	0.019697977
129.81999	0.019316858
130.06999	0.029892381
130.31999	0.1677727
130.56999	0.37266555
130.81999	0.037433714
131.06999	0.024016688
131.31999	0.018846415
131.56999	0.01961125
131.81999	0.0272452
132.06999	0.011624537
132.31999	0.016897831
132.56999	0.013834691
132.81999	0.022317257
133.06999	0.013364347
133.31999	0.14788797
133.56999	0.50232476
133.81999	0.014251849
134.06999	0.013396425
134.31999	0.015603616
134.56999	0.014782693
134.81999	0.015867155
135.06999	0.041291114
135.31999	0.019295312
135.56999	0.06318165
135.81999	0.042920284
136.06999	0.024480466
136.31999	0.024720773
136.56999	0.018263053
136.81999	0.021781597
137.06999	0.029789489
137.31999	0.02519708
137.56999	0.02328407
137.81999	0.022391304
138.06999	0.02798208
138.31999	0.022469396
138.56999	0.022588829
138.81999	0.024928719
139.06999	0.024431556
139.31999	0.21700701
139.56999	0.026770521
139.81999	0.028331105
140.06999	0.052253515
140.31999	0.122725815
140.56999	0.04166091
140.81999	0.03327781
141.06999	0.036297996
141.31999	0.03512603
141.56999	0.03533189
141.81999	0.033179425
142.06999	0.032440253
142.31999	0.03457267
142.56999	0.048741847
142.81999	0.033761807
143.06999	0.039219305
143.31999	0.052245095
143.56999	0.04577598
143.81999	0.03884858
144.06999	0.040860645
144.31999	0.044136364
144.56999	0.047045335
144.81999	0.0432415
145.06999	0.042835772
145.31999	0.044490293
145.56999	0.05190063
145.81999	0.050481502
146.06999	0.04673344
146.31999	0.056246296
146.56999	0.05273981
146.81999	0.07249127
147.06999	0.05901917
147.31999	0.11934865
147.56999	0.05668973
147.81999	0.053394478
148.06999	0.081052005
148.31999	0.07065664
148.56999	0.0784951
148.81999	0.061860718
149.06999	0.060600743
149.31999	0.070335574
149.56999	0.06294764
149.81999	0.06756147
150.06999	0.077178136
150.31999	0.07590392
150.56999	0.07216239
150.81999	0.074387744
151.06999	0.09023626
151.31999	0.08102541
151.56999	0.08256781
151.81999	0.08096407
152.06999	0.08481045
152.31999	0.089660875
152.56999	0.14288114
152.81999	0.09652136
153.06999	0.091539465
153.31999	0.1614234
153.56999	0.10368083
153.81999	0.10588491
154.06999	0.1170996
154.31999	0.100287795
154.56999	0.106165715
154.81999	0.50286186
155.06999	0.32246456
155.31999	0.102473654
155.56999	0.110053085
155.81999	0.17295806
156.06999	0.28540584
156.31999	0.1283209
156.56999	0.13249856
156.81999	0.12805137
157.06999	0.17252384
157.31999	0.15943147
157.56999	0.16950093
157.81999	0.12580842
158.06999	0.14803779
158.31999	0.1271235
158.56999	0.15729412
158.81999	0.1621545
159.06999	0.14616875
159.31999	0.15258281
159.56999	0.1479832
159.81999	0.12926947
160.06999	0.16196
160.31999	0.18474162
160.56999	0.15442473
160.81999	0.17488241
161.06999	0.20021653
161.31999	0.23289406
161.56999	0.16642845
161.81999	0.18142016
162.06999	0.21022174
162.31999	0.21230343
162.56999	0.24328381
162.81999	0.23367107
163.06999	0.20210147
163.31999	0.27473423
163.56999	0.19985908
163.81999	0.24891055
164.06999	0.3285608
164.31999	0.26166815
164.56999	0.23573413
164.81999	0.24761306
165.06999	0.21122095
165.31999	0.2645234
165.56999	0.5039508
165.81999	0.7238016
166.06999	0.28865507
166.31999	0.30279702
166.56999	0.31449202
166.81999	0.26173288
167.06999	0.39432478
167.31999	0.32658204
167.56999	0.32655206
167.81999	0.32341713
168.06999	0.255353
168.31999	0.2600997
168.56999	0.43404642
168.81999	0.30551147
169.06999	0.44418037
169.31999	0.47174507
169.56999	0.5330154
169.81999	0.43901002
170.06999	0.4733679
170.31999	0.35317126
170.56999	0.39555308
170.81999	0.40481246
171.06999	0.43080133
171.31999	0.45170808
171.56999	0.59276617
171.81999	0.5967624
172.06999	0.5936388
172.31999	0.5243318
172.56999	0.65574443
172.81999	0.5102306
173.06999	0.3684971
173.31999	0.41411504
173.56999	0.46548066
173.81999	0.47147065
174.06999	0.60206455
174.31999	0.6409309
174.56999	0.7399527
174.81999	0.64316
175.06999	0.7834316
175.31999	0.77892816
175.56999	0.8092774
175.81999	0.80124784
176.06999	0.7853982
176.31999	0.76065063
176.56999	0.6928912
176.81999	0.8824635
177.06999	0.97049206
177.31999	1.0865521
177.56999	0.81636125
177.81999	1.0219505
178.06999	1.0826148
178.31999	1.058242
178.56999	1.0980814
178.81999	1.1553626
179.06999	1.2371347
179.31999	0.92108
179.56999	1.0103524
179.81999	1.1009068
180.06999	1.1682609
180.31999	1.1866002
180.56999	1.2288079
180.81999	1.6999016
181.06999	1.2763323
181.31999	1.196261
181.56999	2.1443207
181.81999	1.759765
182.06999	1.4037293
182.31999	1.5815973
182.56999	1.5564082
182.81999	1.4547229
183.06999	1.5002332
183.31999	1.5791104
183.56999	1.6277821
183.81999	1.7325805
184.06999	1.3685685
184.31999	1.5139633
184.56999	1.4834237
184.81999	1.2691717
185.06999	1.3745978
185.31999	1.5238752
185.56999	1.9068588
185.81999	1.5904565
186.06999	1.7273059
186.31999	1.7312224
186.56999	1.7110026
186.81999	2.1096618
187.06999	2.1381946
187.31999	2.1172528
187.56999	2.0418172
187.81999	1.9803598
188.06999	1.8976158
188.31999	2.3526297
188.56999	2.2673657
188.81999	2.30553
189.06999	2.586999
189.31999	2.5912752
189.56999	2.610035
189.81999	2.2074575
190.06999	2.4483385
190.31999	2.6982708
190.56999	2.52839
190.81999	2.8879795
191.06999	2.509817
191.31999	2.699718
191.56999	3.010093
191.81999	2.809578
192.06999	3.1590862
192.31999	2.9901905
192.56999	2.95966
192.81999	3.0316148
193.06999	2.2969353
193.31999	2.2559764
193.56999	2.0503635
193.81999	2.784066
194.06999	3.3834677
194.31999	3.9338837
194.56999	3.510919
194.81999	4.156818
195.06999	3.5657458
195.31999	3.6625173
195.56999	3.7767463
195.81999	3.8305914
196.06999	3.7726789
196.31999	3.7989483
196.56999	4.3716
196.81999	4.565119
197.06999	4.2906923
197.31999	4.236929
197.56999	4.2502403
197.81999	4.2009463
198.06999	4.4632034
198.31999	4.4926534
198.56999	4.279838
198.81999	4.1430607
199.06999	4.294798
199.31999	4.9194074
199.56999	4.645118
199.81999	4.5135007
200.06999	4.854612
200.31999	4.9789357
200.56999	5.094257
200.81999	4.921157
201.06999	5.075422
201.31999	5.499731
201.56999	5.3155
201.81999	5.7842684
202.06999	5.520518
202.31999	5.55863
202.56999	4.6106267
202.81999	5.7635026
203.06999	6.187759
203.31999	5.7400494
203.56999	6.0698895
203.81999	6.224003
204.06999	6.1922655
204.31999	6.767909
204.56999	6.948566
204.81999	6.665903
205.06999	6.8777676
205.31999	7.187048
205.56999	6.7077475
205.81999	6.931228
206.06999	7.4440975
206.31999	6.660597
206.56999	7.44308
206.81999	7.7200513
207.06999	7.750079
207.31999	7.9165573
207.56999	8.259305
207.81999	8.311332
208.06999	8.6546755
208.31999	8.653907
208.56999	9.101988
208.81999	10.835429
209.06999	10.482779
209.31999	12.266392
209.56999	12.878561
209.81999	13.694244
210.06999	13.154231
210.31999	14.852866
210.56999	18.633928
210.81999	16.082592
211.06999	14.032458
211.31999	19.16883
211.56999	16.8347
211.81999	21.519741
212.06999	24.163473
212.31999	14.657105
212.56999	13.79572
212.81999	19.891016
213.06999	16.26198
213.31999	18.606567
213.56999	15.373262
213.81999	19.95041
214.06999	23.517815
214.31999	26.472038
214.56999	22.99025
214.81999	23.750809
215.06999	21.506222
215.31999	25.489292
215.56999	20.95043
215.81999	13.723774
216.06999	21.652145
216.31999	22.544716
216.56999	19.2468
216.81999	16.932257
217.06999	18.275
217.31999	21.935282
217.56999	17.245544
217.81999	17.506123
218.06999	30.213123
218.31999	28.181078
218.56999	27.414772
218.81999	19.782658
219.06999	23.981962
219.31999	30.024435
219.56999	23.168884
219.81999	30.33714
220.06999	22.526075
220.31999	35.02404
220.56999	31.953983
220.81999	22.261421
221.06999	18.968895
221.31999	24.36515
221.56999	25.809216
221.81999	17.901953
222.06999	31.033073
222.31999	28.852873
222.56999	27.978342
222.81999	26.903648
223.06999	26.03521
223.31999	40.877373
223.56999	41.476967
223.81999	32.68979
224.06999	35.184017
224.31999	28.95528
224.56999	32.17173
224.81999	39.11963
225.06999	31.081238
225.31999	29.64488
225.56999	30.371
225.81999	31.00491
226.06999	26.831985
226.31999	27.592546
226.56999	21.235981
226.81999	22.135107
227.06999	20.280987
227.31999	22.533236
227.56999	22.726357
227.81999	27.08351
228.06999	31.900604
228.31999	34.681698
228.56999	35.005096
228.81999	28.482079
229.06999	27.622707
229.31999	30.536032
229.56999	35.8046
229.81999	21.868744
230.06999	25.610254
230.31999	28.608076
230.56999	40.612217
230.81999	39.34588
231.06999	25.31148
231.31999	22.983448
231.56999	36.14458
231.81999	36.869972
232.06999	24.621338
232.31999	41.988014
232.56999	31.120682
232.81999	31.46642
233.06999	34.474407
233.31999	26.214134
233.56999	36.843945
233.81999	22.239414
234.06999	28.608934
234.31999	26.993217
234.56999	20.874344
234.81999	22.318562
235.06999	34.41811
235.31999	40.818794
235.56999	35.013683
235.81999	40.000282
236.06999	24.88652
236.31999	35.98173
236.56999	30.379028
236.81999	28.169617
237.06999	41.02844
237.31999	33.989548
237.56999	32.613415
237.81999	40.871758
238.06999	26.544249
238.31999	17.815382
238.56999	35.629917
238.81999	29.312384
239.06999	40.55037
239.31999	40.919403
239.56999	21.461489
239.81999	33.641026
240.06999	32.04698
240.31999	36.993195
240.56999	22.838211
240.81999	29.690197
241.06999	27.042463
241.31999	29.616726
241.56999	38.36701
241.81999	45.51609
242.06999	46.973362
242.31999	51.8914
242.56999	45.064117
242.81999	52.399254
243.06999	50.362885
243.31999	46.497322
243.56999	41.596226
243.81999	48.595215
244.06999	46.13279
244.31999	49.164726
244.56999	46.369682
244.81999	37.8138
245.06999	38.660923
245.31999	35.341892
245.56999	38.471523
245.81999	40.909344
246.06999	36.41339
246.31999	32.716778
246.56999	40.29387
246.81999	41.576656
247.06999	42.559513
247.31999	39.41562
247.56999	48.95012
247.81999	42.53033
248.06999	40.972027
248.31999	30.484154
248.56999	38.726223
248.81999	32.214943
249.06999	24.548355
249.31999	41.162983
249.56999	51.077656
249.81999	51.36937
250.06999	49.6467
250.31999	47.0495
250.56999	48.764633
250.81999	38.601196
251.06999	47.222
251.31999	43.50492
251.56999	28.904963
251.81999	33.597202
252.06999	37.06283
252.31999	32.329834
252.56999	32.677124
252.81999	31.695068
253.06999	37.149002
253.31999	43.870697
253.56999	42.39571
253.81999	41.959106
254.06999	42.335392
254.31999	50.916843
254.56999	44.733444
254.81999	46.25912
255.06999	43.29697
255.31999	63.91441
255.56999	67.54782
255.81999	61.695686
256.07	73.29035
256.32	51.31233
256.57	83.91601
256.82	82.119095
257.07	98.948326
257.32	104.25328
257.57	66.47731
257.82	86.04256
258.07	123.220436
258.32	110.280945
258.57	58.109787
258.82	87.9152
259.07	127.38336
259.32	74.67665
259.57	85.58076
259.82	58.143925
260.07	49.121872
260.32	93.288574
260.57	70.53259
260.82	56.115494
261.07	74.095505
261.32	46.356033
261.57	77.85102
261.82	68.71919
262.07	92.61351
262.32	85.78371
262.57	86.77178
262.82	68.67701
263.07	62.881664
263.32	74.77241
263.57	131.35728
263.82	187.34686
264.07	169.63351
264.32	235.34807
264.57	168.3922
264.82	138.6767
265.07	142.52876
265.32	166.814
265.57	204.38388
265.82	199.29121
266.07	207.71608
266.32	150.98148
266.57	185.03786
266.82	183.29163
267.07	182.75438
267.32	138.35364
267.57	221.91736
267.82	179.6206
268.07	168.4694
268.32	174.406
268.57	171.02196
268.82	178.38173
269.07	142.23901
269.32	180.6727
269.57	146.27742
269.82	172.08495
270.07	224.53972
270.32	185.44653
270.57	221.11807
270.82	171.74623
271.07	199.30783
271.32	210.51709
271.57	144.77043
271.82	173.65833
272.07	84.17085
272.32	153.02776
272.57	157.18108
272.82	162.41066
273.07	220.27306
273.32	177.50104
273.57	176.57545
273.82	115.50925
274.07	102.004234
274.32	86.65013
274.57	128.33282
274.82	100.92186
275.07	75.81233
275.32	179.20813
275.57	105.12989
275.82	181.92035
276.07	211.38063
276.32	160.23558
276.57	240.13797
276.82	182.39584
277.07	193.6041
277.32	211.23163
277.57	211.1563
277.82	152.29124
278.07	130.29274
278.32	132.68407
278.57	150.6375
278.82	126.506454
279.07	92.87157
279.32	64.89029
279.57	61.454185
279.82	44.258007
280.07	61.335556
280.32	56.38962
280.57	71.36817
280.82	108.93927
281.07	140.16354
281.32	141.3941
281.57	227.16585
281.82	200.47256
282.07	237.14304
282.32	234.25131
282.57	238.54791
282.82	238.60841
283.07	294.75208
283.32	277.9553
283.57	212.57843
283.82	302.58508
284.07	243.89558
284.32	229.49915
284.57	234.17052
284.82	150.34283
285.07	89.04122
285.32	41.08927
285.57	115.23088
285.82	184.68896
286.07	262.13965
286.32	291.89883
286.57	317.57266
286.82	261.28632
287.07	282.95923
287.32	334.31097
287.57	272.47983
287.82	239.27202
288.07	167.16486
288.32	141.61783
288.57	316.3783
288.82	284.0426
289.07	279.67377
289.32	307.4339
289.57	330.08176
289.82	385.6245
290.07	515.6243
290.32	421.333
290.57	475.77875
290.82	415.08643
291.07	406.3498
291.32	504.47156
291.57	374.9316
291.82	408.48187
292.07	407.5498
292.32	420.0744
292.57	335.0278
292.82	317.16895
293.07	407.21484
293.32	468.66974
293.57	486.54892
293.82	265.54712
294.07	359.5247
294.32	417.8081
294.57	420.39246
294.82	303.46884
295.07	353.1299
295.32	469.82294
295.57	410.11765
295.82	408.8449
296.07	431.36615
296.32	499.37866
296.57	322.59494
296.82	284.2211
297.07	280.6867
297.32	303.30774
297.57	455.8592
297.82	570.83075
298.07	387.63474
298.32	228.74185
298.57	224.76715
298.82	319.65527
299.07	473.3905
299.32	405.5072
299.57	274.47296
299.82	446.69003
300.07	182.00833
300.32	218.25288
300.57	388.06412
300.82	239.3801
301.07	387.4552
301.32	345.26617
301.57	397.86932
301.82	337.2854
302.07	146.5853
302.32	415.07544
302.57	314.00507
302.82	550.8389
303.07	435.22406
303.32	525.0165
303.57	568.43915
303.82	333.70193
304.07	465.6647
304.32	417.8699
304.57	541.19073
304.82	344.42142
305.07	489.95572
305.32	653.11316
305.57	452.52658
305.82	289.92035
306.07	364.3007
306.32	529.806
306.57	413.70135
306.82	329.32642
307.07	564.2603
307.32	516.70807
307.57	405.55017
307.82	480.2206
308.07	571.1725
308.32	357.12903
308.57	648.23083
308.82	443.14874
309.07	441.90152
309.32	285.2982
309.57	475.92462
309.82	358.7756
310.07	276.80392
310.32	411.66742
310.57	510.84344
310.82	586.17194
311.07	579.5257
311.32	646.6278
311.57	593.8348
311.82	418.13702
312.07	259.652
312.32	510.04102
312.57	505.0517
312.82	528.0518
313.07	520.0484
313.32	295.84952
313.57	463.62003
313.82	584.76575
314.07	606.3341
314.32	510.1728
314.57	179.79918
314.82	337.272
315.07	587.63776
315.32	548.7175
315.57	480.70837
315.82	305.67416
316.07	502.29633
316.32	728.3324
316.57	627.3729
316.82	671.93976
317.07	914.11145
317.32	1046.794
317.57	935.3936
317.82	719.19794
318.07	552.70917
318.32	516.983
318.57	732.0148
318.82	980.0416
319.07	840.2869
319.32	507.8621
319.57	639.248
319.82	923.147
320.07	734.0874
320.32	899.17725
320.57	949.93134
320.82	741.5339
321.07	554.4807
321.32	481.67065
321.57	769.39124
321.82	770.4587
322.07	818.0388
322.32	764.23486
322.57	648.59375
322.82	407.55722
323.07	608.45605
323.32	618.95306
323.57	494.57587
323.82	711.12744
324.07	881.85547
324.32	678.89557
324.57	1113.4037
324.82	588.6753
325.07	900.3399
325.32	726.977
325.57	1114.8201
325.82	1134.8969
326.07	956.7351
326.32	1015.2521
326.57	1005.4486
326.82	1023.1066
327.07	765.26624
327.32	938.90924
327.57	1024.5315
327.82	816.20355
328.07	845.9665
328.32	923.27026
328.57	947.6336
328.82	941.25555
329.07	1055.02
329.32	1153.2509
329.57	1052.8062
329.82	1191.1567
330.07	1115.0374
330.32	890.6415
330.57	832.66876
330.82	957.55865
331.07	1002.5724
331.32	796.8071
331.57	824.39545
331.82	1031.8851
332.07	947.1129
332.32	790.7799
332.57	1080.9137
332.82	901.2825
333.07	1023.40247
333.32	1023.7094
333.57	696.54553
333.82	930.2359
334.07	852.54285
334.32	969.14026
334.57	963.5766
334.82	739.4746
335.07	848.0427
335.32	987.8283
335.57	932.03424
335.82	804.0552
336.07	339.364
336.32	861.2328
336.57	911.38947
336.82	698.64795
337.07	533.49713
337.32	509.23346
337.57	1007.50903
337.82	883.4606
338.07	641.6712
338.32	732.4574
338.57	1020.42395
338.82	742.7971
339.07	954.79425
339.32	559.3546
339.57	903.6638
339.82	891.218
340.07	1073.974
340.32	793.0631
340.57	733.84045
340.82	773.3259
341.07	912.04236
341.32	604.7814
341.57	633.79004
341.82	776.78784
342.07	941.66125
342.32	689.8923
342.57	844.9462
342.82	906.20575
343.07	1044.0895
343.32	825.3879
343.57	1134.5681
343.82	794.937
344.07	522.1037
344.32	496.88135
344.57	773.1815
344.82	988.2494
345.07	1118.4984
345.32	716.865
345.57	1203.72
345.82	737.90076
346.07	622.4372
346.32	962.78326
346.57	794.8664
346.82	1015.7062
347.07	1141.0898
347.32	741.7175
347.57	611.6153
347.82	852.8153
348.07	1115.5773
348.32	895.3032
348.57	1134.0784
348.82	1093.9609
349.07	758.65656
349.32	802.30237
349.57	856.5418
349.82	910.347
350.07	1075.6875
350.32	1221.3202
350.57	1065.6062
350.82	1025.5636
351.07	875.59863
351.32	878.1266
351.57	862.39496
351.82	1053.6238
352.07	753.9957
352.32	780.2787
352.57	517.6045
352.82	1059.8319
353.07	976.5604
353.32	968.91675
353.57	1016.4562
353.82	1118.1602
354.07	1208.3486
354.32	1172.7927
354.57	1191.6528
354.82	981.69824
355.07	1104.8804
355.32	871.0757
355.57	919.84283
355.82	1126.0372
356.07	844.5668
356.32	1361.9171
356.57	556.66364
356.82	890.78125
357.07	641.13104
357.32	800.9166
357.57	905.25903
357.82	879.3638
358.07	590.4782
358.32	950.8381
358.57	470.36047
358.82	687.89886
359.07	1002.9841
359.32	999.9908
359.57	968.05853
359.82	1223.8901
360.07	1268.6034
360.32	817.09534
360.57	799.1395
360.82	788.2358
361.07	819.63617
361.32	907.96295
361.57	1104.2755
361.82	577.69434
362.07	835.40106
362.32	1041.2488
362.57	1221.142
362.82	1290.091
363.07	700.17834
363.32	924.57184
363.57	747.1461
363.82	1056.2546
364.07	1223.295
364.32	1036.9429
364.57	967.16583
364.82	644.3836
365.07	872.4051
365.32	1280.0103
365.57	1177.8147
365.82	1346.2974
366.07	1182.0032
366.32	1176.0703
366.57	1075.8912
366.82	1043.3853
367.07	1106.3759
367.32	1238.1691
367.57	1242.387
367.82	1121.9901
368.07	866.3361
368.32	1014.804
368.57	915.9887
368.82	900.3571
369.07	1215.7988
369.32	1099.3694
369.57	1286.2103
369.82	1249.253
370.07	1301.2072
370.32	903.6229
370.57	842.3284
370.82	817.73804
371.07	1068.7114
371.32	1338.769
371.57	1335.0225
371.82	1164.8851
372.07	488.77545
372.32	881.32324
372.57	1241.9194
372.82	952.9035
373.07	1097.8175
373.32	686.0904
373.57	475.6438
373.82	755.93695
374.07	1230.6486
374.32	889.3291
374.57	635.41455
374.82	589.3084
375.07	778.44727
375.32	1272.7212
375.57	1559.8073
375.82	685.5338
376.07	1022.0612
376.32	1104.3215
376.57	1305.2024
376.82	1033.9536
377.07	948.7886
377.32	1446.4495
377.57	1303.1847
377.82	1246.0239
378.07	1839.6887
378.32	1505.8369
378.57	1572.6265
378.82	1136.1824
379.07	1186.15
379.32	1243.0812
379.57	1138.7847
379.82	783.2578
380.07	1224.3271
380.32	1703.6608
380.57	1254.565
380.82	1338.051
381.07	1609.2468
381.32	1489.742
381.57	871.2945
381.82	1489.9841
382.07	668.79425
382.32	1211.0729
382.57	676.0354
382.82	764.20496
383.07	858.7491
383.32	496.66412
383.57	795.4412
383.82	591.08923
384.07	775.01135
384.32	1237.7013
384.57	1345.0531
384.82	1685.2472
385.07	1378.6985
385.32	1578.9685
385.57	1196.4059
385.82	1025.7709
386.07	953.9887
386.32	1429.1116
386.57	1330.7972
386.82	1320.8881
387.07	1288.7721
387.32	1061.6569
387.57	1385.8159
387.82	949.1416
388.07	1682.3564
388.32	1523.2947
388.57	853.7714
388.82	885.8619
389.07	1130.833
389.32	1274.1609
389.57	1154.7557
389.82	1422.0984
390.07	1314.2024
390.32	1133.2599
390.57	1106.0581
390.82	1491.3239
391.07	1431.9822
391.32	1531.2445
391.57	1557.0946
391.82	1428.9202
392.07	1044.8167
392.32	1333.7908
392.57	1352.268
392.82	863.07806
393.07	538.9381
393.32	307.53125
393.57	494.49762
393.82	867.7166
394.07	1286.5647
394.32	1055.8821
394.57	1616.8738
394.82	1286.5056
395.07	1625.4835
395.32	1514.5538
395.57	1517.8999
395.82	1712.352
396.07	1249.2982
396.32	1017.1807
396.57	673.7869
396.82	325.15396
397.07	609.1123
397.32	924.75574
397.57	1191.2355
397.82	1712.0896
398.07	1684.9739
398.32	1522.2476
398.57	1611.2578
398.82	1988.8365
399.07	1679.9138
399.32	1824.2407
399.57	1632.1238
399.82	1449.5078
400.07	1849.4542
400.32	1909.4719
400.57	1408.2147
400.82	2007.8888
401.07	1684.5579
401.32	1801.7161
401.57	1798.3689
401.82	1867.3035
402.07	1717.9294
402.32	1798.9813
402.57	1587.569
402.82	1944.4368
403.07	1332.768
403.32	1367.8077
403.57	1526.6392
403.82	1948.927
404.07	1764.7666
404.32	1830.3998
404.57	1138.1163
404.82	1812.0049
405.07	1917.4147
405.32	1807.1888
405.57	1769.6885
405.82	1517.94
406.07	1950.8076
406.32	1202.3162
406.57	1650.0688
406.82	1722.6979
407.07	1379.2137
407.32	1843.086
407.57	1499.9346
407.82	1541.3916
408.07	1928.4463
408.32	1643.8428
408.57	1756.2703
408.82	2010.815
409.07	1958.5455
409.32	1976.5994
409.57	1734.3054
409.82004	1757.0709
410.07004	1221.1206
410.32004	1395.5417
410.57004	1707.5281
410.82004	1807.4376
411.07004	1870.4302
411.32004	1895.5817
411.57004	1914.3411
411.82004	1755.1927
412.07004	1927.1283
412.32004	1889.629
412.57004	1910.5846
412.82004	1625.385
413.07004	1896.7415
413.32004	1448.6138
413.57004	1843.401
413.82004	1888.1233
414.07004	1921.9025
414.32004	1431.3774
414.57004	2018.6729
414.82004	1825.6257
415.07004	1786.0181
415.32004	1699.7423
415.57004	1716.1218
415.82004	1787.8099
416.07004	1933.9453
416.32004	1840.8159
416.57004	2029.2539
416.82004	1823.6882
417.07004	1795.2534
417.32004	1532.5249
417.57004	1633.3845
417.82004	1654.2786
418.07004	1817.2776
418.32004	1935.7007
418.57004	1703.6777
418.82004	1580.7599
419.07004	1734.9124
419.32004	2024.7573
419.57004	1562.2507
419.82004	1561.0547
420.07004	1606.1746
420.32004	1536.1912
420.57004	1663.9528
420.82004	2025.8416
421.07004	1776.4995
421.32004	1919.3304
421.57004	1651.3328
421.82004	1668.6189
422.07004	2038.4062
422.32004	1722.5557
422.57004	1156.8495
422.82004	1614.0986
423.07004	1848.722
423.32004	1737.375
423.57004	1601.1915
423.82004	1626.5798
424.07004	1723.0199
424.32004	1569.1665
424.57004	1801.7776
424.82004	1547.321
425.07004	1472.2502
425.32004	1622.5327
425.57004	1658.139
425.82004	1812.061
426.07004	1329.0919
426.32004	1711.3945
426.57004	1690.9387
426.82004	1647.3022
427.07004	1070.7632
427.32004	1395.4698
427.57004	1415.0836
427.82004	1786.2526
428.07004	1436.2
428.32004	1591.4729
428.57004	1351.5502
428.82004	1488.4116
429.07004	1219.9845
429.32004	1531.4775
429.57004	1413.6013
429.82004	1100.5554
430.07004	967.3511
430.32004	969.313
430.57004	1046.6757
430.82004	838.9655
431.07004	938.5013
431.32004	1238.9823
431.57004	1826.2087
431.82004	1999.293
432.07004	1795.3503
432.32004	1388.8805
432.57004	1128.1355
432.82004	1774.561
433.07004	1768.6553
433.32004	1819.7705
433.57004	1927.6001
433.82004	1279.2108
434.07004	1043.0728
434.32004	1548.6537
434.57004	1749.6367
434.82004	1661.9692
435.07004	1462.8452
435.32004	1623.0693
435.57004	1619.0846
435.82004	1884.2776
436.07004	1770.8851
436.32004	1735.8428
436.57004	1942.1893
436.82004	1787.365
437.07004	1625.2097
437.32004	1745.8093
437.57004	1568.4211
437.82004	1768.8466
438.07004	1901.104
438.32004	1153.267
438.57004	1543.4117
438.82004	1637.9424
439.07004	1495.7295
439.32004	1743.2665
439.57004	1603.0835
439.82004	1794.1929
440.07004	1460.5977
440.32004	1827.8813
440.57004	1568.8157
440.82004	1631.1365
441.07004	1886.4407
441.32004	1922.1838
441.57004	1586.2539
441.82004	1789.3158
442.07004	1813.6152
442.32004	1760.9264
442.57004	1927.5709
442.82004	1885.5634
443.07004	1743.1802
443.32004	1884.7142
443.57004	1658.3223
443.82004	2076.0598
444.07004	1848.4912
444.32004	1577.7451
444.57004	1954.441
444.82004	1967.4817
445.07004	1847.1948
445.32004	1873.3401
445.57004	1459.1576
445.82004	1631.9703
446.07004	1704.6663
446.32004	1903.6945
446.57004	1758.8379
446.82004	1844.3739
447.07004	1777.9346
447.32004	2023.4609
447.57004	2009.8701
447.82004	2167.8604
448.07004	1806.9429
448.32004	1734.3984
448.57004	2128.6008
448.82004	1864.667
449.07004	1861.7926
449.32004	2063.309
449.57004	1783.7323
449.82004	1969.5361
450.07004	1997.5215
450.32004	2165.217
450.57004	2153.6948
450.82004	2101.5671
451.07004	2148.1274
451.32004	2116.0583
451.57004	2020.0659
451.82004	1954.5018
452.07004	2082.9988
452.32004	1956.7556
452.57004	1790.37
452.82004	1741.0131
453.07004	1851.4604
453.32004	1897.5055
453.57004	1768.5715
453.82004	2107.2168
454.07004	1931.2844
454.32004	2105.869
454.57004	1866.3715
454.82004	1904.623
455.07004	1937.7549
455.32004	1991.7725
455.57004	1815.8331
455.82004	2107.8945
456.07004	2114.3267
456.32004	2073.7593
456.57004	1988.0422
456.82004	2105.2183
457.07004	1904.7126
457.32004	2035.6544
457.57004	2073.2415
457.82004	1994.6394
458.07004	1799.596
458.32004	1905.9655
458.57004	1895.3628
458.82004	1974.269
459.07004	1925.4114
459.32004	1903.3752
459.57004	1896.1423
459.82004	2000.8348
460.07004	1796.712
460.32004	1941.7214
460.57004	1967.8112
460.82004	2061.4148
461.07004	1948.2897
461.32004	1914.8541
461.57004	1989.1063
461.82004	1882.7308
462.07004	2046.6754
462.32004	2058.8213
462.57004	1969.6083
462.82004	2042.6643
463.07004	2096.712
463.32004	1932.3925
463.57004	2052.0488
463.82004	1939.4268
464.07004	2113.3516
464.32004	2106.5974
464.57004	2005.4021
464.82004	1884.4236
465.07004	2071.8157
465.32004	2030.9414
465.57004	1879.651
465.82004	2063.0215
466.07004	2140.3728
466.32004	2068.7837
466.57004	1983.513
466.82004	1679.01
467.07004	2101.2886
467.32004	2044.3882
467.57004	2006.5712
467.82004	1955.7539
468.07004	1950.2346
468.32004	2070.6528
468.57004	1908.2001
468.82004	2080.004
469.07004	1908.1819
469.32004	2084.4924
469.57004	2102.6833
469.82004	1834.6663
470.07004	1872.4556
470.32004	1783.5192
470.57004	2039.4243
470.82004	1838.8746
471.07004	1956.1736
471.32004	1771.0903
471.57004	1993.5752
471.82004	2123.8726
472.07004	2090.8374
472.32004	1995.1653
472.57004	2148.079
472.82004	1830.5767
473.07004	1882.6819
473.32004	1934.9082
473.57004	1964.6323
473.82004	2009.2451
474.07004	1986.1683
474.32004	2067.766
474.57004	2032.97
474.82004	2140.8796
475.07004	2112.6187
475.32004	1994.0575
475.57004	1936.1353
475.82004	2000.5101
476.07004	2090.6914
476.32004	1924.958
476.57004	1902.5459
476.82004	2027.0073
477.07004	2060.934
477.32004	2030.5278
477.57004	2090.4177
477.82004	2179.6062
478.07004	2045.4835
478.32004	2014.3346
478.57004	1920.0244
478.82004	1971.6221
479.07004	2018.047
479.32004	1980.4701
479.57004	2103.6704
479.82004	1991.6184
480.07004	1984.9701
480.32004	2070.1533
480.57004	1995.503
480.82004	1935.2881
481.07004	1999.9952
481.32004	1952.5153
481.57004	2077.8245
481.82004	1996.9102
482.07004	2031.4867
482.32004	1897.9546
482.57004	2066.6917
482.82004	1984.7606
483.07004	2029.835
483.32004	2012.7439
483.57004	1899.3019
483.82004	1995.0011
484.07004	1724.7761
484.32004	1936.0098
484.57004	1997.1702
484.82004	1950.0538
485.07004	1994.5721
485.32004	1961.9402
485.57004	1701.5602
485.82004	1750.6868
486.07004	1135.837
486.32004	1511.3416
486.57004	1741.9102
486.82004	1872.4097
487.07004	1696.719
487.32004	1788.2542
487.57004	1876.3254
487.82004	1827.6582
488.07004	1953.7136
488.32004	2004.1564
488.57004	1862.7576
488.82004	1704.0631
489.07004	1657.5853
489.32004	1999.9849
489.57004	2047.9591
489.82004	2128.9116
490.07004	1948.3257
490.32004	1785.902
490.57004	2103.1409
490.82004	1943.3745
491.07004	1772.8729
491.32004	1911.1317
491.57004	2041.4418
491.82004	1669.1039
492.07004	1748.1279
492.32004	1905.5864
492.57004	1867.1555
492.82004	2046.9856
493.07004	2075.0066
493.32004	1821.2539
493.57004	1966.8054
493.82004	1759.665
494.07004	1877.2622
494.32004	1980.4713
494.57004	1945.9292
494.82004	2033.0079
495.07004	2056.3218
495.32004	2030.3173
495.57004	1959.384
495.82004	1635.4993
496.07004	2111.9944
496.32004	2034.0977
496.57004	1914.2676
496.82004	1941.7961
497.07004	1928.9513
497.32004	2010.8992
497.57004	2026.6116
497.82004	1923.2986
498.07004	1785.3705
498.32004	1552.3469
498.57004	1802.7588
498.82004	1949.3325
499.07004	1927.31
499.32004	1816.6301
499.57004	2049.8955
499.82004	1914.927
500.07004	1788.1582
500.32004	1900.9407
500.57004	1751.791
500.82004	1927.1733
501.07004	1885.4297
501.32004	1539.4481
501.57004	1803.7584
501.82004	1749.7041
502.07004	1845.68
502.32004	1814.958
502.57004	1990.8267
502.82004	1885.2507
503.07004	1959.2981
503.32004	2078.094
503.57004	1800.0112
503.82004	1853.8868
504.07004	1478.271
504.32004	1942.7795
504.57004	2098.4624
504.82004	1881.9443
505.07004	1667.0745
505.32004	2018.2678
505.57004	2051.9897
505.82004	2039.5806
506.07004	1999.9277
506.32004	2059.6553
506.57004	1795.4718
506.82004	1818.4949
507.07004	2065.8826
507.32004	1883.9231
507.57004	1801.3728
507.82004	1912.4551
508.07004	1632.2361
508.32004	1661.5911
508.57004	1973.1849
508.82004	1866.928
509.07004	1974.7783
509.32004	2001.2004
509.57004	2009.074
509.82004	1701.2853
510.07004	1896.644
510.32004	1949.1963
510.57004	1966.6821
510.82004	1746.0719
511.07004	1717.4521
511.32004	1992.3928
511.57004	1906.0698
511.82004	1987.6257
512.07	1917.8688
512.32	1807.4346
512.57	1685.7163
512.82	1721.9185
513.07	1882.9851
513.32	1845.283
513.57	1972.5305
513.82	1657.3708
514.07	1864.0087
514.32	1705.7144
514.57	1837.9344
514.82	1809.8398
515.07	1750.064
515.32	1811.9438
515.57	1864.5823
515.82	1922.1926
516.07	1956.3743
516.32	1815.1674
516.57	1640.6687
516.82	1229.6151
517.07	1691.104
517.32	1229.7236
517.57	1884.4297
517.82	1869.5863
518.07	1869.6118
518.32	1119.263
518.57	1712.124
518.82	1827.6813
519.07	1843.9807
519.32	1751.9916
519.57	1626.7847
519.82	1826.9541
520.07	1970.9409
520.32	1860.4546
520.57	1588.382
520.82	1704.1815
521.07	1855.0385
521.32	1971.0852
521.57	1704.4917
521.82	1825.719
522.07	1900.7844
522.32	1934.2024
522.57	1695.4048
522.82	1681.2437
523.07	1868.0927
523.32	1786.9609
523.57	1727.7778
523.82	1952.3723
524.07	1967.4952
524.32	1838.4509
524.57	1888.699
524.82	1862.013
525.07	1837.447
525.32	1953.976
525.57	1793.0867
525.82	1819.5171
526.07	1834.3564
526.32	1587.428
526.57	1560.0164
526.82	1628.1243
527.07	1383.6096
527.32	1706.9951
527.57	1704.3782
527.82	1930.5238
528.07	1780.1462
528.32	1703.3313
528.57	1939.138
528.82	1947.6106
529.07	2008.72
529.32	1842.9088
529.57	1855.8157
529.82	1634.2555
530.07	1884.414
530.32	1870.2479
530.57	1977.6753
530.82	1874.4677
531.07	1956.3842
531.32	1943.0479
531.57	1778.0813
531.82	1933.976
532.07	1926.0162
532.32	1758.4387
532.57	1818.4056
532.82	1334.7478
533.07	1888.5024
533.32	1597.2338
533.57	1865.0264
533.82	1767.2267
534.07	1689.7671
534.32	1948.3362
534.57	1794.7688
534.82	1819.1538
535.07	1905.547
535.32	1884.0432
535.57	1969.5587
535.82	1963.6509
536.07	1948.4863
536.32	1927.102
536.57	1778.1853
536.82	1843.7888
537.07	1469.9208
537.32	1914.0286
537.57	1975.2118
537.82	1887.345
538.07	1868.0109
538.32	1745.7869
538.57	1974.5769
538.82	1883.1416
539.07	1839.955
539.32	1847.099
539.57	1825.5151
539.82	1667.6593
540.07	1797.596
540.32	1697.9579
540.57	1510.6635
540.82	1858.3568
541.07	1661.3124
541.32	1856.1487
541.57	1797.4779
541.82	1868.8528
542.07	1842.1588
542.32	1785.8347
542.57	1884.8278
542.82	1895.8284
543.07	1666.8406
543.32	1741.8989
543.57	1682.8677
543.82	1937.8064
544.07	1920.6072
544.32	1932.3049
544.57	1621.3148
544.82	1828.0201
545.07	1947.7428
545.32	1881.4878
545.57	1657.3683
545.82	1916.3158
546.07	1893.4473
546.32	1714.8499
546.57	1919.4915
546.82	1903.4949
547.07	1893.1602
547.32	1822.3069
547.57	1639.0765
547.82	1796.3086
548.07	1841.9382
548.32	1900.0093
548.57	1941.8254
548.82	1669.0212
549.07	1876.1453
549.32	1776.5205
549.57	1869.7814
549.82	1794.6599
550.07	1816.9984
550.32	1846.2175
550.57	1734.7544
550.82	1896.6388
551.07	1846.6469
551.32	1691.2751
551.57	1858.4832
551.82	1900.1483
552.07	1860.5818
552.32	1869.012
552.57	1786.1797
552.82	1670.227
553.07	1888.1335
553.32	1843.6005
553.57	1789.3411
553.82	1900.8899
554.07	1921.6621
554.32	1873.0896
554.57	1877.7622
554.82	1896.5835
555.07	1888.6573
555.32	1826.4125
555.57	1798.3014
555.82	1845.691
556.07	1837.6323
556.32	1714.9692
556.57	1822.5154
556.82	1821.8108
557.07	1778.272
557.32	1709.1307
557.57	1761.4886
557.82	1858.5414
558.07	1859.9664
558.32	1776.8639
558.57	1694.5306
558.82	1637.9193
559.07	1797.6467
559.32	1722.0942
559.57	1776.5638
559.82	1677.8096
560.07	1712.691
560.32	1724.1399
560.57	1882.064
560.82	1867.5604
561.07	1878.2686
561.32	1882.3412
561.57	1606.9993
561.82	1812.3016
562.07	1817.5212
562.32	1843.2388
562.57	1751.7494
562.82	1841.7512
563.07	1877.9767
563.32	1823.036
563.57	1849.2432
563.82	1807.4778
564.07	1778.5867
564.32	1797.5027
564.57	1840.2605
564.82	1844.483
565.07	1777.1678
565.32	1823.6384
565.57	1724.6466
565.82	1608.6526
566.07	1796.0028
566.32	1732.6149
566.57	1803.5342
566.82	1786.3068
567.07	1807.6714
567.32	1871.884
567.57	1820.993
567.82	1811.2402
568.07	1865.0981
568.32	1693.3811
568.57	1757.2682
568.82	1783.852
569.07	1795.5541
569.32	1841.6118
569.57	1825.8125
569.82	1816.2871
570.07	1747.0795
570.32	1794.9218
570.57	1758.6069
570.82	1620.2336
571.07	1641.9384
571.32	1809.8943
571.57	1806.8594
571.82	1803.8489
572.07	1838.0189
572.32	1856.0007
572.57	1860.1204
572.82	1816.7621
573.07	1814.3345
573.32	1850.5747
573.57	1852.5012
573.82	1841.7955
574.07	1825.9111
574.32	1822.1735
574.57	1850.7622
574.82	1719.0791
575.07	1842.8936
575.32	1645.9177
575.57	1772.2406
575.82	1824.4635
576.07	1766.0898
576.32	1741.4019
576.57	1850.1447
576.82	1838.0999
577.07	1829.2593
577.32	1798.8975
577.57	1804.6821
577.82	1837.1318
578.07	1752.1682
578.32	1745.4143
578.57	1708.1909
578.82	1786.3748
579.07	1752.3176
579.32	1789.2507
579.57	1831.7327
579.82	1778.5186
580.07	1830.4404
580.32	1790.4371
580.57	1751.3152
580.82	1777.1962
581.07	1813.46
581.32	1811.8104
581.57	1745.3547
581.82	1828.3354
582.07	1817.118
582.32	1815.2135
582.57	1821.7566
582.82	1812.4307
583.07	1771.0676
583.32	1815.3234
583.57	1779.7174
583.82	1791.9835
584.07	1807.1858
584.32	1817.8599
584.57	1806.9097
584.82	1758.1398
585.07	1807.2633
585.32	1697.8335
585.57	1765.1807
585.82	1652.5254
586.07	1743.75
586.32	1725.2019
586.57	1737.072
586.82	1753.1226
587.07	1804.3513
587.32	1787.1742
587.57	1802.7892
587.82	1785.4683
588.07	1767.6149
588.32	1748.5292
588.57	1789.9568
588.82	1716.7628
589.07	1346.7612
589.32	1701.0276
589.57	1440.4271
589.82	1726.1183
590.07	1788.4995
590.32	1755.9003
590.57	1756.275
590.82	1790.827
591.07	1783.1993
591.32	1677.7241
591.57	1723.325
591.82	1763.5435
592.07	1781.2035
592.32	1742.9906
592.57	1785.2517
592.82	1721.4187
593.07	1652.698
593.32	1769.143
593.57	1702.2463
593.82	1768.8672
594.07	1742.0352
594.32	1755.5981
594.57	1776.8126
594.82	1686.649
595.07	1770.912
595.32	1691.7251
595.57	1735.0903
595.82	1756.4666
596.07	1755.3041
596.32	1764.6196
596.57	1735.8202
596.82	1763.6721
597.07	1763.3754
597.32	1768.6952
597.57	1648.81
597.82	1728.7122
598.07	1747.1062
598.32	1728.2311
598.57	1677.0697
598.82	1699.9507
599.07	1717.5994
599.32	1749.542
599.57	1726.8933
599.82	1718.3326
600.07	1743.8756
600.32	1677.0527
600.57	1729.5505
600.82	1617.4908
601.07	1744.2593
601.32	1648.2034
601.57	1676.929
601.82	1735.9076
602.07	1621.9501
602.32	1651.6346
602.57	1736.3817
602.82	1666.8276
603.07	1665.7769
603.32	1738.7428
603.57	1740.6256
603.82	1741.0826
604.07	1730.5364
604.32	1735.5823
604.57	1730.9113
604.82	1737.3236
605.07	1734.5673
605.32	1700.6453
605.57	1650.6492
605.82	1729.2394
606.07	1726.9647
606.32	1690.1874
606.57	1635.5585
606.82	1730.3783
607.07	1723.1195
607.32	1733.2843
607.57	1724.6582
607.82	1646.3531
608.07	1695.8142
608.32	1685.4382
608.57	1657.2211
608.82	1710.4778
609.07	1668.8911
609.32	1664.3317
609.57	1703.3372
609.82	1704.436
610.07	1707.977
610.32	1507.4302
610.57	1691.9995
610.82	1633.7653
611.07	1696.9569
611.32	1687.9517
611.57	1674.3865
611.82	1706.698
612.07	1665.454
612.32	1565.2045
612.57	1647.934
612.82	1670.4355
613.07	1597.5652
613.32	1701.1561
613.57	1575.2437
613.82	1530.642
614.07	1613.3336
614.32	1646.383
614.57	1631.7456
614.82	1636.0195
615.07	1661.5515
615.32	1665.9088
615.57	1584.7528
615.82	1580.8965
616.07	1594.9829
616.32	1467.8656
616.57	1560.5247
616.82	1626.7535
617.07	1556.7115
617.32	1642.1265
617.57	1617.4597
617.82	1669.1724
618.07	1649.214
618.32	1683.9717
618.57	1665.283
618.82	1639.991
619.07	1512.8228
619.32	1676.6956
619.57	1648.6249
619.82	1669.543
620.07	1625.843
620.32	1682.937
620.57	1670.1394
620.82	1658.7999
621.07	1676.1357
621.32	1592.3895
621.57	1579.2937
621.82	1602.6646
622.07	1627.522
622.32	1650.9236
622.57	1643.9722
622.82	1648.3497
623.07	1545.133
623.32	1602.2163
623.57	1666.3657
623.82	1553.1414
624.07	1620.2904
624.32	1551.1487
624.57	1516.3037
624.82	1615.6287
625.07	1638.8422
625.32	1445.5774
625.57	1565.8896
625.82	1557.5902
626.07	1614.0886
626.32	1650.8174
626.57	1577.095
626.82	1616.9224
627.07	1606.6255
627.32	1641.225
627.57	1580.6069
627.82	1536.9941
628.07	1554.3708
628.32	1577.0286
628.57	1599.497
628.82	1631.3353
629.07	1584.8225
629.32	1572.0728
629.57	1616.1406
629.82	1592.7208
630.07	1540.8958
630.32	1572.2065
630.57	1625.2125
630.82	1636.1853
631.07	1610.5454
631.32	1632.0851
631.57	1445.0653
631.82	1498.4182
632.07	1615.2671
632.32	1563.4426
632.57	1624.6251
632.82	1611.739
633.07	1606.7334
633.32	1620.1665
633.57	1478.703
633.82	1584.685
634.07	1629.436
634.32	1571.1151
634.57	1625.3876
634.82	1591.8549
635.07	1615.1094
635.32	1602.132
635.57	1556.9377
635.82	1564.3252
636.07	1593.2695
636.32	1535.2382
636.57	1580.6647
636.82	1605.2007
637.07	1572.7297
637.32	1605.0366
637.57	1607.5271
637.82	1592.8086
638.07	1559.5608
638.32	1605.002
638.57	1562.87
638.82	1609.3184
639.07	1594.4731
639.32	1495.5353
639.57	1596.7168
639.82	1586.2307
640.07	1431.3115
640.32	1602.8103
640.57	1603.7991
640.82	1511.2494
641.07	1505.3384
641.32	1574.8074
641.57	1540.6934
641.82	1571.2717
642.07	1442.8274
642.32	1587.0056
642.57	1584.7534
642.82	1592.6611
643.07	1503.5138
643.32	1560.9692
643.57	1582.0286
643.82	1446.2988
644.07	1575.0388
644.32	1573.4547
644.57	1585.1625
644.82	1584.4587
645.07	1491.5948
645.32	1583.6414
645.57	1487.4038
645.82	1556.4491
646.07	1559.0062
646.32	1412.3208
646.57	1576.8341
646.82	1533.1078
647.07	1512.6978
647.32	1570.0374
647.57	1501.8936
647.82	1566.0302
648.07	1564.723
648.32	1525.0903
648.57	1571.6327
648.82	1569.3083
649.07	1538.1023
649.32	1451.4233
649.57	1314.8562
649.82	1508.5682
650.07	1501.6777
650.32	1506.5638
650.57	1564.1526
650.82	1552.8254
651.07	1549.6031
651.32	1555.2988
651.57	1527.0087
651.82	1520.073
652.07	1553.2979
652.32	1552.3064
652.57	1537.2759
652.82	1536.3179
653.07	1545.6013
653.32	1518.9989
653.57	1543.3467
653.82	1506.5791
654.07	1532.9913
654.32	1529.9672
654.57	1444.9562
654.82	1504.1677
655.07	1481.9143
655.32	1469.6528
655.57	1407.9172
655.82	1388.1248
656.07	1220.9006
656.32	892.74646
656.57	1303.354
656.82	1409.6611
657.07	1452.2437
657.32	1456.1115
657.57	1460.68
657.82	1510.759
658.07	1504.0631
658.32	1513.5765
658.57	1495.6464
658.82	1518.5719
659.07	1526.937
659.32	1388.7177
659.57	1512.6674
659.82	1514.12
660.07	1532.2478
660.32	1526.0603
660.57	1489.774
660.82	1475.8802
661.07	1509.3688
661.32	1521.1969
661.57	1527.2975
661.82	1522.0701
662.07	1525.0742
662.32	1506.6991
662.57	1507.4294
662.82	1513.3684
663.07	1483.4106
663.32	1409.4984
663.57	1502.6995
663.82	1518.6528
664.07	1483.7598
664.32	1467.4445
664.57	1514.7168
664.82	1509.829
665.07	1518.2506
665.32	1503.8634
665.57	1505.4485
665.82	1513.1465
666.07	1508.2582
666.32	1429.0732
666.57	1485.6648
666.82	1497.3651
667.07	1508.6925
667.32	1506.7078
667.57	1508.2799
667.82	1411.5413
668.07	1500.6542
668.32	1498.8788
668.57	1507.5072
668.82	1496.5315
669.07	1506.4294
669.32	1495.3672
669.57	1451.7931
669.82	1452.2302
670.07	1501.7275
670.32	1476.3804
670.57	1475.8911
670.82	1488.3368
671.07	1472.6881
671.32	1441.0529
671.57	1469.4794
671.82	1425.9338
672.07	1466.4875
672.32	1483.1237
672.57	1451.1572
672.82	1489.8047
673.07	1465.1271
673.32	1466.9884
673.57	1487.1826
673.82	1475.171
674.07	1468.4735
674.32	1466.4012
674.57	1475.7933
674.82	1468.0908
675.07	1434.3491
675.32	1445.6201
675.57	1479.1616
675.82	1469.7644
676.07	1476.0776
676.32	1469.2511
676.57	1451.5912
676.82	1426.8662
677.07	1443.7227
677.32	1444.4673
677.57	1465.3656
677.82	1459.2065
678.07	1467.7002
678.32	1446.928
678.57	1437.4225
678.82	1446.1229
679.07	1462.5563
679.32	1447.5983
679.57	1441.3678
679.82	1437.602
680.07	1438.094
680.32	1449.297
680.57	1433.6008
680.82	1450.1116
681.07	1421.5728
681.32	1441.0254
681.57	1435.5077
681.82	1458.9565
682.07	1413.291
682.32	1455.1736
682.57	1455.1436
682.82	1416.3125
683.07	1428.0349
683.32	1449.2003
683.57	1453.368
683.82	1417.0886
684.07	1384.739
684.32	1387.917
684.57	1444.8564
684.82	1441.4442
685.07	1436.1941
685.32	1447.7109
685.57	1366.4868
685.82	1401.9318
686.07	1413.4651
686.32	1435.6511
686.57	1445.563
686.82	1429.1229
687.07	1442.1251
687.32	1420.5669
687.57	1433.3896
687.82	1442.2314
688.07	1418.8629
688.32	1397.3425
688.57	1417.6666
688.82	1416.3523
689.07	1434.6848
689.32	1434.632
689.57	1416.249
689.82	1421.2104
690.07	1433.7872
690.32	1432.3152
690.57	1410.9292
690.82	1427.8923
691.07	1414.0563
691.32	1420.5662
691.57	1348.4595
691.82	1414.7754
692.07	1403.169
692.32	1401.14
692.57	1390.8457
692.82	1419.0879
693.07	1414.4117
693.32	1392.0209
693.57	1402.1885
693.82	1414.3538
694.07	1419.2563
694.32	1405.2415
694.57	1360.4983
694.82	1396.3685
695.07	1380.0068
695.32	1402.2808
695.57	1387.5507
695.82	1409.8369
696.07	1408.3816
696.32	1406.2578
696.57	1375.1027
696.82	1406.2852
697.07	1390.0542
697.32	1408.5173
697.57	1376.8239
697.82	1304.8772
698.07	1370.9064
698.32	1405.6581
698.57	1399.4635
698.82	1389.2555
699.07	1397.262
699.32	1389.542
699.57	1379.6636
699.82	1376.7247
700.07	1342.2902
700.32	1366.2307
700.57	1355.5763
700.82	1374.4138
701.07	1361.1592
701.32	1353.4967
701.57	1317.8354
701.82	1358.4412
702.07	1391.7357
702.32	1305.3119
702.57	1353.0149
702.82	1343.4092
703.07	1370.0044
703.32	1382.9912
703.57	1358.5952
703.82	1319.0538
704.07	1385.2229
704.32	1386.6746
704.57	1368.3931
704.82	1385.0483
705.07	1383.6855
705.32	1340.2998
705.57	1366.2548
705.82	1376.1069
706.07	1347.0615
706.32	1365.8336
706.57	1373.4839
706.82	1314.3312
707.07	1352.3553
707.32	1358.0789
707.57	1373.0006
707.82	1373.6622
708.07	1363.435
708.32	1342.5813
708.57	1300.189
708.82	1369.348
709.07	1322.3989
709.32	1359.5708
709.57	1356.4589
709.82	1353.2653
710.07	1357.4847
710.32	1363.2745
710.57	1355.5657
710.82	1325.0708
711.07	1331.3687
711.32	1311.73
711.57	1327.4268
711.82	1340.2307
712.07	1339.4402
712.32	1294.9127
712.57	1352.534
712.82	1315.0627
713.07	1298.9814
713.32	1304.669
713.57	1350.8713
713.82	1349.627
714.07	1349.8628
714.32	1322.8535
714.57	1330.5524
714.82	1239.5948
715.07	1340.5527
715.32	1343.9897
715.57	1322.6805
715.82	1339.0295
716.07	1337.1246
716.32	1297.8413
716.57	1241.5299
716.82	1344.491
717.07	1340.9576
717.32	1342.2535
717.57	1301.8542
717.82	1339.4233
718.07	1257.8066
718.32	1319.834
718.57	1302.8362
718.82	1209.7289
719.07	1296.5107
719.32	1266.8888
719.57	1321.1016
719.82	1308.1317
720.07	1331.1826
720.32	1288.3682
720.57	1328.1963
720.82	1192.1235
721.07	1323.2982
721.32	1307.8204
721.57	1309.7944
721.82	1320.4106
722.07	1290.445
722.32	1263.1083
722.57	1297.4615
722.82	1305.4701
723.07	1324.7686
723.32	1325.3826
723.57	1296.5608
723.82	1313.983
724.07	1307.4321
724.32	1318.7562
724.57	1275.3354
724.82	1319.5704
725.07	1261.3097
725.32	1308.3143
725.57	1308.0276
725.82	1307.3035
726.07	1251.5554
726.32	1307.8871
726.57	1306.7493
726.82	1311.824
727.07	1308.7157
727.32	1291.0994
727.57	1279.8184
727.82	1289.5659
728.07	1307.5725
728.32	1265.666
728.57	1262.5868
728.82	1202.1626
729.07	1244.686
729.32	1254.3154
729.57	1281.2306
729.82	1282.654
730.07	1285.9802
730.32	1286.2261
730.57	1276.6456
730.82	1246.393
731.07	1248.5037
731.32	1297.2777
731.57	1298.3734
731.82	1287.5355
732.07	1262.0922
732.32	1295.6804
732.57	1214.4117
732.82	1270.8542
733.07	1271.6176
733.32	1277.148
733.57	1286.5631
733.82	1291.9965
734.07	1280.4309
734.32	1290.9979
734.57	1276.0018
734.82	1287.3948
735.07	1259.442
735.32	1280.9814
735.57	1236.5881
735.82	1277.4684
736.07	1266.4293
736.32	1228.4454
736.57	1275.1176
736.82	1277.1818
737.07	1278.0333
737.32	1271.047
737.57	1267.1858
737.82	1285.4827
738.07	1268.3074
738.32	1262.7988
738.57	1207.4446
738.82	1166.1305
739.07	1261.6465
739.32	1238.8857
739.57	1267.9846
739.82	1268.5378
740.07	1196.6572
740.32	1276.796
740.57	1226.4873
740.82	1195.8901
741.07	1212.9553
741.32	1263.8938
741.57	1173.2357
741.82	1220.0701
742.07	1250.5935
742.32	1152.5604
742.57	1248.5513
742.82	1258.8662
743.07	1240.8528
743.32	1250.8636
743.57	1247.9216
743.82	1264.2373
744.07	1228.2966
744.32	1228.8988
744.57	1184.6609
744.82	1229.0084
745.07	1246.397
745.32	1235.0575
745.57	1257.5161
745.82	1253.9194
746.07	1245.1958
746.32	1193.2136
746.57	1250.1677
746.82	1251.957
747.07	1251.6239
747.32	1222.7782
747.57	1236.3931
747.82	1248.4891
748.07	1219.1669
748.32	1220.4178
748.57	1249.8081
748.82	1243.4458
749.07	1206.1003
749.32	1235.245
749.57	1165.2797
749.82	1232.4878
750.07	1238.0618
750.32	1237.2056
750.57	1229.0012
750.82	1228.297
751.07	1152.3591
751.32	1216.1366
751.57	1230.3486
751.82	1239.7318
752.07	1241.393
752.32	1190.5812
752.57	1191.9943
752.82	1237.9038
753.07	1205.1782
753.32	1234.2202
753.57	1235.4668
753.82	1227.5249
754.07	1230.0685
754.32	1229.0012
754.57	1231.9143
754.82	1207.4547
755.07	1230.6791
755.32	1212.0989
755.57	1179.6761
755.82	1223.6909
756.07	1181.3191
756.32	1224.0432
756.57	1224.6278
756.82	1185.1246
757.07	1224.7511
757.32	1191.0842
757.57	1222.2656
757.82	1212.7612
758.07	1221.7593
758.32	1173.0873
758.57	1174.0251
758.82	1211.2426
759.07	1214.2432
759.32	1213.7848
759.57	1209.3821
759.82	1209.4806
760.07	1200.3314
760.32	1187.2654
760.57	1198.6095
760.82	1217.1207
761.07	1196.8513
761.32	1215.3157
761.57	1184.3293
761.82	1101.0338
762.07	1182.6106
762.32	1208.588
762.57	1210.325
762.82	1209.3033
763.07	1205.489
763.32	1207.2527
763.57	1207.7734
763.82	1206.4584
764.07	1197.5698
764.32	1204.2561
764.57	1205.9454
764.82	1198.7731
765.07	1203.0105
765.32	1184.2418
765.57	1166.23
765.82	1090.4335
766.07	1129.8303
766.32	1136.2782
766.57	1112.085
766.82	1183.8247
767.07	1185.7426
767.32	1193.111
767.57	1196.6592
767.82	1193.0553
768.07	1160.2904
768.32	1193.9692
768.57	1188.8141
768.82	1179.0916
769.07	1136.555
769.32	1187.0123
769.57	1183.4075
769.82	1123.9103
770.07	1187.1019
770.32	1187.1759
770.57	1186.1534
770.82	1175.4011
771.07	1114.9191
771.32	1143.7352
771.57	1184.4768
771.82	1178.5178
772.07	1176.6628
772.32	1115.6438
772.57	1177.5426
772.82	1140.4882
773.07	1180.0576
773.32	1175.3453
773.57	1178.2123
773.82	1178.4431
774.07	1176.3611
774.32	1143.6312
774.57	1117.9849
774.82	1079.7141
775.07	1155.2657
775.32	1173.105
775.57	1168.7527
775.82	1162.7886
776.07	1167.6158
776.32	1173.9067
776.57	1168.761
776.82	1172.2349
777.07	1151.9099
777.32	1127.5789
777.57	1145.9353
777.82	1168.1975
778.07	1109.6691
778.32	1167.4856
778.57	1166.3699
778.82	1129.4344
779.07	1164.1172
779.32	1162.5033
779.57	1164.4996
779.82	1109.9126
780.07	1149.2158
780.32	1159.7411
780.57	1159.607
780.82	1140.4429
781.07	1118.9617
781.32	1157.6084
781.57	1153.8563
781.82	1158.589
782.07	1146.0996
782.32	1156.9358
782.57	1128.2583
782.82	1155.7567
783.07	1151.2266
783.32	1079.5577
783.57	1100.1135
783.82	1149.931
784.07	1141.1841
784.32	1146.2343
784.57	1143.6265
784.82	1143.9976
785.07	1106.8525
785.32	1144.2626
785.57	1134.0038
785.82	1147.5541
786.07	1133.102
786.32	1141.3822
786.57	1141.341
786.82	1143.4895
787.07	1138.5524
787.32	1138.3573
787.57	1136.7189
787.82	1124.9092
788.07	1112.8818
788.32	1135.4906
788.57	1137.0092
788.82	1132.3867
789.07	1132.3234
789.32	1130.261
789.57	1113.9275
789.82	1126.6116
790.07	1109.688
790.32	1125.3513
790.57	1123.5182
790.82	1124.8286
791.07	1121.9213
791.32	1079.8832
791.57	1120.2123
791.82	1068.8363
792.07	1125.8986
792.32	1113.4991
792.57	1115.9584
792.82	1120.4069
793.07	1079.5574
793.32	1072.2228
793.57	1120.2021
793.82	1047.7404
794.07	1095.7144
794.32	1067.2655
794.57	1046.1437
794.82	1109.7471
795.07	1110.5526
795.32	1114.1991
795.57	1100.9852
795.82	1106.6674
796.07	1112.8639
796.32	1112.1023
796.57	1113.5905
796.82	1112.8499
797.07	1103.3068
797.32	1110.6135
797.57	1099.8469
797.82	1101.245
798.07	1108.662
798.32	1113.5537
798.57	1107.2466
798.82	1096.6265
799.07	1110.5233
799.32	1105.9248
799.57	1090.2117
799.82	1042.2698
800.07	1103.347
800.32	1088.285
800.57	1103.5923
800.82	1090.5852
801.07	1101.7732
801.32	1099.9478
801.57	1101.7839
801.82	1100.6902
802.07	1095.552
802.32	1100.9081
802.57	1080.1853
802.82	1049.3436
803.07	1098.5457
803.32	1099.1997
803.57	1062.5721
803.82	1097.7555
804.07	1093.6371
804.32	1086.0544
804.57	1033.9631
804.82	1052.8146
805.07	1076.189
805.32	1069.2524
805.57	1087.5238
805.82	1085.4355
806.07	1089.2137
806.32	1086.2035
806.57	1091.2576
806.82	1083.4589
807.07	1058.5801
807.32	1063.7429
807.57	1061.8105
807.82	1085.2528
808.07	1071.2183
808.32	1078.0953
808.57	1030.7325
808.82	1074.2367
809.07	1072.3821
809.32	1037.6864
809.57	1060.4962
809.82	1031.74
810.07	1078.0963
810.32	1075.0581
810.57	1070.6835
810.82	1074.0039
811.07	1073.0459
811.32	1072.1096
811.57	1061.9857
811.82	1075.3525
812.07	1071.7495
812.32	1076.5413
812.57	1066.3495
812.82	1071.7925
813.07	1065.8884
813.32	1072.0656
813.57	1067.9698
813.82	1066.2119
814.07	1062.9982
814.32	1061.6091
814.57	1066.9276
814.82	1056.3962
815.07	1043.8866
815.32	1063.406
815.57	1058.8948
815.82	1061.029
816.07	1059.3771
816.32	1039.5359
816.57	1059.4567
816.82	1057.8
817.07	1057.7471
817.32	1056.2244
817.57	1059.6935
817.82	1045.8317
818.07	1055.295
818.32	968.4936
818.57	1039.8302
818.82	1051.9786
819.07	1059.4225
819.32	1038.1132
819.57	942.2934
819.82	1017.43964
820.07	1031.6189
820.32	1048.7971
820.57	1038.2421
820.82	1021.99927
821.07	1028.815
821.32	981.91534
821.57	1035.3262
821.82	1051.3225
822.07	965.1913
822.32	1047.1042
822.57	1051.7987
822.82	1044.7238
823.07	1004.03595
823.32	1015.7781
823.57	1034.9303
823.82	1013.251
824.07	1047.6879
824.32	1041.7745
824.57	1046.987
824.82	990.0095
825.07	1032.2753
825.32	1043.624
825.57	1030.6725
825.82	1038.8561
826.07	1039.5667
826.32	1032.8405
826.57	1035.3435
826.82	1036.4537
827.07	1031.6924
827.32	1030.0547
827.57	1026.1223
827.82	1032.9277
828.07	1035.5604
828.32	1035.3354
828.57	1033.6165
828.82	1019.7335
829.07	1034.2467
829.32	1003.0171
829.57	1017.11615
829.82	1023.4063
830.07	1023.89716
830.32	1020.1676
830.57	979.0237
830.82	1020.88196
831.07	993.0408
831.32	1022.437
831.57	1028.4723
831.82	998.91614
832.07	1019.2371
832.32	1022.5381
832.57	1005.36816
832.82	948.1178
833.07	991.35004
833.32	1000.80505
833.57	979.7811
833.82	988.28217
834.07	1017.84595
834.32	1005.0461
834.57	963.68665
834.82	1001.66986
835.07	1019.309
835.32	1010.0427
835.57	1016.24994
835.82	1006.4718
836.07	1007.7372
836.32	1002.4105
836.57	983.71216
836.82	1015.19476
837.07	1008.46075
837.32	1004.70447
837.57	1011.09033
837.82	996.6101
838.07	1014.8394
838.32	983.56055
838.57	1004.58344
838.82	915.739
839.07	1003.44275
839.32	1008.5908
839.57	1001.4069
839.82	993.9835
840.07	978.5952
840.32	998.65656
840.57	1005.4098
840.82	1003.9786
841.07	1003.89276
841.32	982.84186
841.57	1003.9667
841.82	963.9852
842.07	995.48224
842.32	975.38324
842.57	973.47784
842.82	999.262
843.07	1000.10223
843.32	985.5628
843.57	934.1122
843.82	989.45105
844.07	959.9676
844.32	984.5327
844.57	955.0208
844.82	995.9539
845.07	987.9724
845.32	993.9845
845.57	991.04736
845.82	984.38086
846.07	989.55865
846.32	985.91833
846.57	978.0165
846.82	909.8922
847.07	968.81433
847.32	984.83875
847.57	987.21686
847.82	978.9517
848.07	976.94403
848.32	978.7927
848.57	980.72687
848.82	980.6091
849.07	981.5602
849.32	964.2648
849.57	912.9972
849.82	650.8522
850.07	922.56665
850.32	947.2962
850.57	962.6063
850.82	975.418
851.07	974.12256
851.32	912.5658
851.57	931.5095
851.82	961.5457
852.07	974.66016
852.32	974.71674
852.57	944.3645
852.82	937.9735
853.07	957.1527
853.32	946.44604
853.57	908.4252
853.82	853.98267
854.07	650.16943
854.32	581.90295
854.57	836.29333
854.82	906.2654
855.07	935.76544
855.32	952.45514
855.57	925.01807
855.82	961.8537
856.07	961.90765
856.32	958.8807
856.57	961.0166
856.82	959.62256
857.07	960.5254
857.32	964.2278
857.57	957.56805
857.82	967.0409
858.07	967.50085
858.32	921.9134
858.57	957.4
858.82	956.0131
859.07	956.21765
859.32	942.83093
859.57	934.6164
859.82	916.3568
860.07	945.55725
860.32	930.2021
860.57	943.79156
860.82	953.0071
861.07	905.90283
861.32	950.1562
861.57	939.9955
861.82	955.2866
862.07	925.51465
862.32	959.76776
862.57	943.6059
862.82	957.2771
863.07	948.9702
863.32	949.10754
863.57	942.9048
863.82	931.05334
864.07	952.2125
864.32	926.5583
864.57	944.4005
864.82	904.5093
865.07	940.9909
865.32	928.1684
865.57	915.0906
865.82	856.3563
866.07	654.32825
866.32	577.7363
866.57	834.92194
866.82	894.2416
867.07	910.6586
867.32	912.9101
867.57	874.59973
867.82	939.3857
868.07	885.3135
868.32	932.093
868.57	929.3248
868.82	830.31775
869.07	922.41425
869.32	920.36774
869.57	935.6272
869.82	894.4834
870.07	927.5105
870.32	930.6281
870.57	940.076
870.82	940.04407
871.07	889.28174
871.32	897.6727
871.57	939.5222
871.82	906.23016
872.07	930.6166
872.32	937.7239
872.57	938.01904
872.82	902.38715
873.07	936.1169
873.32	934.82355
873.57	841.936
873.82	926.725
874.07	920.9545
874.32	893.20557
874.57	916.24316
874.82	896.1273
875.07	873.7412
875.32	877.5399
875.57	915.3441
875.82	875.4044
876.07	923.59467
876.32	888.76465
876.57	917.1476
876.82	924.8013
877.07	924.2202
877.32	861.8303
877.57	913.4414
877.82	925.4435
878.07	926.9439
878.32	924.1885
878.57	920.63574
878.82	915.282
879.07	889.3513
879.32	880.04504
879.57	917.6991
879.82	923.99084
880.07	923.4193
880.32	919.88214
880.57	765.59143
880.82	850.63446
881.07	916.84827
881.32	918.7749
881.57	918.35016
881.82	914.62524
882.07	903.8757
882.32	839.1029
882.57	913.6654
882.82	914.3495
883.07	918.4821
883.32	902.90857
883.57	901.62585
883.82	865.0846
884.07	888.9541
884.32	907.3601
884.57	888.1112
884.82	907.32666
885.07	901.36346
885.32	903.098
885.57	898.5418
885.82	888.53
886.07	869.0585
886.32	821.49817
886.57	850.27277
886.82	863.3873
887.07	897.29956
887.32	896.4259
887.57	887.9666
887.82	884.1989
888.07	900.993
888.32	890.2345
888.57	905.83826
888.82	905.47205
889.07	900.688
889.32	879.87604
889.57	902.5575
889.82	894.3289
890.07	905.74854
890.32	901.4142
890.57	901.7718
890.82	895.77026
891.07	900.3863
891.32	873.6415
891.57	900.87946
891.82	898.21533
892.07	871.41125
892.32	873.91785
892.57	888.4119
892.82	839.1819
893.07	889.1073
893.32	894.9044
893.57	898.73804
893.82	897.0148
894.07	895.2673
894.32	885.71094
894.57	861.5193
894.82	866.1758
895.07	893.0826
895.32	894.51025
895.57	885.6737
895.82	893.15424
896.07	886.7645
896.32	882.58374
896.57	878.4826
896.82	865.67847
897.07	890.4538
897.32	879.97205
897.57	859.24896
897.82	877.38983
898.07	879.591
898.32	882.593
898.57	874.63617
898.82	872.544
899.07	877.23364
899.32	880.0034
899.57	873.09863
899.82	859.4791
900.07	820.3307
900.32	873.186
900.57	864.5569
900.82	834.123
901.07	824.4883
901.32	787.0366
901.57	799.9006
901.82	828.6007
902.07	827.676
902.32	847.05884
902.57	868.7674
902.82	867.4457
903.07	869.7604
903.32	874.1745
903.57	867.3358
903.82	871.93854
904.07	875.2741
904.32	873.29944
904.57	874.00336
904.82	873.01086
905.07	862.4879
905.32	864.8865
905.57	872.5327
905.82	863.015
906.07	821.2469
906.32	815.90326
906.57	869.9612
906.82	864.5307
907.07	861.46356
907.32	866.96313
907.57	865.9252
907.82	826.2207
908.07	834.59155
908.32	863.78284
908.57	865.33875
908.82	763.9039
909.07	853.88293
909.32	839.7904
909.57	800.2527
909.82	841.8297
910.07	852.32837
910.32	841.71686
910.57	846.0855
910.82	856.6369
911.07	822.1723
911.32	835.6376
911.57	857.97485
911.82	835.05615
912.07	859.3595
912.32	845.0943
912.57	857.39655
912.82	859.97894
913.07	855.39307
913.32	855.48944
913.57	852.081
913.82	857.6108
914.07	844.9562
914.32	850.79297
914.57	844.5488
914.82	827.95996
915.07	849.0005
915.32	849.52075
915.57	847.3418
915.82	849.5238
916.07	848.43994
916.32	841.55304
916.57	839.7256
916.82	838.1137
917.07	840.02686
917.32	821.1061
917.57	840.12726
917.82	838.8928
918.07	836.9986
918.32	841.13684
918.57	836.78534
918.82	836.5784
919.07	838.6334
919.32	835.53827
919.57	839.07465
919.82	827.7341
920.07	833.20593
920.32	834.8468
920.57	822.7578
920.82	824.4817
921.07	803.75256
921.32	774.8165
921.57	822.55615
921.82	773.5796
922.07	820.93506
922.32	810.7065
922.57	788.32153
922.82	714.71735
923.07	760.5767
923.32	801.1715
923.57	809.60864
923.82	777.89484
924.07	821.4727
924.32	797.19666
924.57	803.96735
924.82	815.6526
925.07	829.7973
925.32	808.2528
925.57	749.29083
925.82	780.53827
926.07	820.99664
926.32	801.34216
926.57	819.0448
926.82	823.6602
927.07	816.1354
927.32	825.78986
927.57	829.2672
927.82	820.52277
928.07	807.8436
928.32	828.49554
928.57	824.5853
928.82	806.05646
929.07	798.8809
929.32	816.6489
929.57	806.4662
929.82	817.8637
930.07	815.73553
930.32	820.6622
930.57	811.8004
930.82	817.5886
931.07	811.633
931.32	821.8638
931.57	816.9011
931.82	795.76624
932.07	818.954
932.32	808.7432
932.57	809.8264
932.82	803.2792
933.07	821.5193
933.32	808.0761
933.57	809.8233
933.82	815.1106
934.07	816.9036
934.32	813.554
934.57	803.9934
934.82	814.3387
935.07	793.5908
935.32	814.7235
935.57	799.73395
935.82	794.7158
936.07	807.6739
936.32	794.3202
936.57	800.35815
936.82	801.0665
937.07	805.07886
937.32	804.6864
937.57	805.2394
937.82	808.6053
938.07	797.5299
938.32	801.5225
938.57	803.0555
938.82	799.6445
939.07	800.23145
939.32	792.4683
939.57	782.7322
939.82	797.12683
940.07	788.6931
940.32	797.25854
940.57	734.18066
940.82	796.80505
941.07	782.79846
941.32	722.9287
941.57	724.8621
941.82	793.09595
942.07	767.9509
942.32	795.7879
942.57	792.59326
942.82	797.7337
943.07	772.806
943.32	762.651
943.57	793.9845
943.82	735.3485
944.07	794.0991
944.32	780.34973
944.57	780.0168
944.82	775.2473
945.07	795.21826
945.32	779.8866
945.57	785.0447
945.82	782.4777
946.07	796.98236
946.32	777.22546
946.57	789.97144
946.82	792.32666
947.07	786.5876
947.32	790.3876
947.57	793.7421
947.82	783.4881
948.07	777.02844
948.32	791.21
948.57	776.37256
948.82	781.46
949.07	791.3154
949.32	783.4668
949.57	780.28375
949.82	788.61304
950.07	780.4392
950.32	777.55664
950.57	770.6086
950.82	782.3064
951.07	776.27576
951.32	774.2685
951.57	785.6881
951.82	780.0491
952.07	768.4738
952.32	779.55444
952.57	770.7136
952.82	772.4225
953.07	765.60846
953.32	775.96375
953.57	749.63745
953.82	764.6686
954.07	748.97833
954.32	725.38324
954.57	656.687
954.82	719.1166
955.07	744.7641
955.32	750.5536
955.57	754.6469
955.82	756.0292
956.07	765.2191
956.32	766.3806
956.57	767.69006
956.82	772.873
957.07	745.3564
957.32	756.96436
957.57	760.51697
957.82	769.7846
958.07	772.11194
958.32	769.36694
958.57	762.69336
958.82	760.1144
959.07	775.8772
959.32	766.73553
959.57	758.9601
959.82	766.3181
960.07	760.90393
960.32	733.00165
960.57	746.219
960.82	751.17035
961.07	770.2845
961.32	770.3903
961.57	766.0438
961.82	765.402
962.07	727.94244
962.32	762.7854
962.57	726.54614
962.82	766.2373
963.07	766.582
963.32	744.3189
963.57	761.6174
963.82	721.59235
964.07	764.2638
964.32	761.1771
964.57	758.7713
964.82	749.718
965.07	753.9526
965.32	740.438
965.57	755.96484
965.82	697.92413
966.07	742.3398
966.32	754.1653
966.57	759.48096
966.82	759.8839
967.07	749.34265
967.32	750.5198
967.57	727.405
967.82	757.9333
968.07	749.381
968.32	755.6025
968.57	756.5099
968.82	735.59827
969.07	741.7766
969.32	750.73236
969.57	754.0649
969.82	754.1537
970.07	748.3799
970.32	751.6559
970.57	733.41223
970.82	754.78424
971.07	753.6921
971.32	752.5631
971.57	748.4075
971.82	747.8177
972.07	751.4859
972.32	747.50854
972.57	747.6264
972.82	733.79144
973.07	743.54706
973.32	751.1071
973.57	734.7412
973.82	709.725
974.07	749.0939
974.32	729.4724
974.57	733.53094
974.82	733.97125
975.07	745.639
975.32	729.1294
975.57	746.554
975.82	738.3782
976.07	744.6734
976.32	718.226
976.57	744.2398
976.82	735.8257
977.07	729.7899
977.32	742.70166
977.57	743.44714
977.82	741.49164
978.07	738.6979
978.32	721.95184
978.57	728.5279
978.82	721.4493
979.07	739.0887
979.32	732.5516
979.57	737.5275
979.82	737.52515
980.07	717.0136
980.32	740.0385
980.57	739.04553
980.82	733.595
981.07	734.7187
981.32	731.5087
981.57	734.4052
981.82	736.43286
982.07	723.16296
982.32	734.71185
982.57	729.9496
982.82	731.4423
983.07	732.0415
983.32	719.23047
983.57	727.885
983.82	727.4836
984.07	730.4331
984.32	724.06287
984.57	727.61096
984.82	721.7798
985.07	726.37994
985.32	729.1442
985.57	721.2098
985.82	728.92267
986.07	709.0351
986.32	729.6157
986.57	729.75
986.82	724.5254
987.07	723.4557
987.32	719.8036
987.57	729.2435
987.82	728.50757
988.07	718.8211
988.32	720.3706
988.57	724.8695
988.82	699.3331
989.07	698.9784
989.32	716.5654
989.57	724.8499
989.82	704.33386
990.07	713.9088
990.32	719.6896
990.57	708.4237
990.82	719.8819
991.07	718.697
991.32	708.2925
991.57	717.76495
991.82	723.6508
992.07	715.38904
992.32	716.8326
992.57	719.4195
992.82	711.8181
993.07	707.7894
993.32	714.943
993.57	718.97974
993.82	714.5737
994.07	692.32117
994.32	707.3157
994.57	716.9067
994.82	711.8679
995.07	707.7644
995.32	712.7588
995.57	707.86804
995.82	713.79694
996.07	710.04126
996.32	711.388
996.57	712.41766
996.82	707.6623
997.07	699.21564
997.32	704.2135
997.57	709.42926
997.82	709.8169
998.07	708.39246
998.32	709.6571
998.57	698.64594
998.82	711.35223
999.07	707.87225
999.32	696.8966
999.57	709.97595
999.82	700.8219
1000.07	703.693
1000.32	706.80695
1000.57	699.3727
1000.82	692.1247
1001.07	695.57007
1001.32	707.76215
1001.57	705.92883
1001.82	705.1798
1002.07	701.6682
1002.32	704.3155
1002.57	693.19696
1002.82	698.9334
1003.07	694.3934
1003.32	696.3379
1003.57	677.6651
1003.82	689.923
1004.07	686.65405
1004.32	679.85535
1004.57	662.4415
1004.82	598.21747
1005.07	609.5551
1005.32	664.0497
1005.57	675.3025
1005.82	677.3099
1006.07	680.8521
1006.32	682.4041
1006.57	664.69055
1006.82	685.32324
1007.07	696.0913
1007.32	694.07776
1007.57	685.875
1007.82	693.33325
1008.07	694.038
1008.32	690.513
1008.57	687.8136
1008.82	693.1257
1009.07	690.9358
1009.32	688.5751
1009.57	694.2864
1009.82	682.1853
1010.07	683.34106
1010.32	677.06506
1010.57	675.3214
1010.82	692.9033
1011.07	692.03577
1011.32	687.35583
1011.57	689.9707
1011.82	690.2691
1012.07	685.7357
1012.32	666.06396
1012.57	686.5954
1012.82	689.95154
1013.07	689.0377
1013.32	688.47345
1013.57	685.6286
1013.82	685.4142
1014.07	688.26624
1014.32	684.24475
1014.57	645.5272
1014.82	678.6693
1015.07	683.78107
1015.32	680.3134
1015.57	672.7842
1015.82	685.0815
1016.07	670.8236
1016.32	654.02826
1016.57	685.03394
1016.82	678.1255
1017.07	680.7232
1017.32	678.782
1017.57	684.00366
1017.82	678.7025
1018.07	680.1151
1018.32	646.5283
1018.57	665.7685
1018.82	675.4969
1019.07	680.34937
1019.32	652.3553
1019.57	675.994
1019.82	668.3798
1020.07	678.8369
1020.32	671.5995
1020.57	677.5459
1020.82	669.47266
1021.07	676.2947
1021.32	656.8533
1021.57	643.74
1021.82	659.2945
1022.07	675.2099
1022.32	670.1352
1022.57	669.3151
1022.82	670.4571
1023.07	674.784
1023.32	671.86926
1023.57	668.40356
1023.82	663.39594
1024.0701	672.38824
1024.3201	672.00037
1024.5701	663.73114
1024.8201	672.95355
1025.0701	673.9877
1025.3201	671.50183
1025.5701	672.95526
1025.8201	670.5872
1026.0701	668.17194
1026.3201	670.5454
1026.5701	667.51373
1026.8201	671.0499
1027.0701	658.49603
1027.3201	667.9619
1027.5701	670.42487
1027.8201	668.91693
1028.0701	669.5666
1028.3201	657.0179
1028.5701	669.4696
1028.8201	629.42145
1029.0701	667.3168
1029.3201	667.1633
1029.5701	665.1957
1029.8201	659.62744
1030.0701	662.2143
1030.3201	657.7825
1030.5701	665.608
1030.8201	661.77234
1031.0701	665.71075
1031.3201	650.521
1031.5701	664.0942
1031.8201	663.38464
1032.0701	659.78644
1032.3201	662.0054
1032.5701	661.01526
1032.8201	626.9689
1033.0701	637.7346
1033.3201	654.69147
1033.5701	650.47974
1033.8201	661.55646
1034.0701	640.3009
1034.3201	625.2141
1034.5701	654.9817
1034.8201	649.3707
1035.0701	659.619
1035.3201	650.5429
1035.5701	653.40607
1035.8201	654.7018
1036.0701	656.57544
1036.3201	652.48895
1036.5701	656.0686
1036.8201	657.2693
1037.0701	605.2562
1037.3201	641.63513
1037.5701	649.3989
1037.8201	638.49756
1038.0701	655.853
1038.3201	654.4189
1038.5701	655.4742
1038.8201	651.0278
1039.0701	651.5722
1039.3201	652.44214
1039.5701	622.6289
1039.8201	648.4398
1040.0701	652.8921
1040.3201	648.8537
1040.5701	643.9625
1040.8201	640.3156
1041.0701	650.2054
1041.3201	649.993
1041.5701	645.1673
1041.8201	649.8034
1042.0701	650.1863
1042.3201	629.782
1042.5701	628.97253
1042.8201	647.2336
1043.0701	647.92914
1043.3201	645.0919
1043.5701	640.2662
1043.8201	646.697
1044.0701	645.6988
1044.3201	646.0501
1044.5701	646.5232
1044.8201	632.82874
1045.0701	643.80865
1045.3201	643.487
1045.5701	592.5187
1045.8201	623.54047
1046.0701	626.2844
1046.3201	643.7224
1046.5701	642.0055
1046.8201	628.9408
1047.0701	612.5211
1047.3201	641.40936
1047.5701	639.286
1047.8201	632.8294
1048.0701	628.39703
1048.3201	638.671
1048.5701	632.82086
1048.8201	640.02924
1049.0701	639.1888
1049.3201	640.6937
1049.5701	633.286
1049.8201	639.6906
1050.0701	628.55023
1050.3201	632.8334
1050.5701	631.50586
1050.8201	635.1281
1051.0701	629.123
1051.3201	632.88904
1051.5701	637.19867
1051.8201	621.4973
1052.0701	632.4895
1052.3201	634.58746
1052.5701	634.15027
1052.8201	635.0709
1053.0701	622.2029
1053.3201	613.7556
1053.5701	633.9136
1053.8201	631.8494
1054.0701	627.17004
1054.3201	634.37335
1054.5701	632.023
1054.8201	633.15765
1055.0701	629.1045
1055.3201	626.06366
1055.5701	630.5067
1055.8201	627.3323
1056.0701	630.6629
1056.3201	631.4262
1056.5701	626.8617
1056.8201	623.8111
1057.0701	622.10516
1057.3201	614.1456
1057.5701	623.03613
1057.8201	620.95734
1058.0701	618.3892
1058.3201	613.512
1058.5701	545.247
1058.8201	594.6149
1059.0701	624.901
1059.3201	622.3963
1059.5701	617.6966
1059.8201	625.87964
1060.0701	625.67065
1060.3201	570.17847
1060.5701	609.94543
1060.8201	623.78485
1061.0701	622.34106
1061.3201	623.48645
1061.5701	620.45215
1061.8201	621.5774
1062.0701	615.2274
1062.3201	622.1122
1062.5701	611.47485
1062.8201	582.09064
1063.0701	613.6527
1063.3201	614.5626
1063.5701	620.6086
1063.8201	620.70056
1064.0701	620.7634
1064.3201	619.32886
1064.5701	620.2779
1064.8201	617.3071
1065.0701	618.6274
1065.3201	618.46686
1065.5701	618.9547
1065.8201	617.20056
1066.0701	559.52527
1066.3201	616.668
1066.5701	612.10986
1066.8201	611.9619
1067.0701	615.39075
1067.3201	608.4223
1067.5701	613.3843
1067.8201	613.719
1068.0701	611.1082
1068.3201	558.9651
1068.5701	571.71313
1068.8201	605.16266
1069.0701	518.5507
1069.3201	570.81476
1069.5701	608.5894
1069.8201	606.11395
1070.0701	589.3019
1070.3201	598.3139
1070.5701	587.89905
1070.8201	571.6259
1071.0701	609.0134
1071.3201	611.3093
1071.5701	602.75964
1071.8201	582.7918
1072.0701	608.57
1072.3201	610.1249
1072.5701	597.5315
1072.8201	557.6252
1073.0701	568.91614
1073.3201	604.8078
1073.5701	608.71423
1073.8201	608.60974
1074.0701	598.755
1074.3201	605.3843
1074.5701	591.0546
1074.8201	567.31287
1075.0701	589.9207
1075.3201	581.3844
1075.5701	604.2022
1075.8201	605.72394
1076.0701	605.0766
1076.3201	604.062
1076.5701	595.9542
1076.8201	594.3543
1077.0701	601.50006
1077.3201	602.99786
1077.5701	602.1315
1077.8201	604.0668
1078.0701	598.59265
1078.3201	580.6744
1078.5701	546.9877
1078.8201	586.7274
1079.0701	601.4777
1079.3201	592.6835
1079.5701	582.61774
1079.8201	594.5298
1080.0701	595.119
1080.3201	592.0907
1080.5701	598.01416
1080.8201	586.87085
1081.0701	509.84308
1081.3201	587.98804
1081.5701	597.1691
1081.8201	586.17944
1082.0701	594.2255
1082.3201	596.56683
1082.5701	570.92444
1082.8201	530.876
1083.0701	587.58307
1083.3201	587.38007
1083.5701	582.89935
1083.8201	587.2451
1084.0701	593.1834
1084.3201	558.1792
1084.5701	583.544
1084.8201	592.2609
1085.0701	591.6588
1085.3201	594.39343
1085.5701	591.395
1085.8201	592.0472
1086.0701	590.80865
1086.3201	572.4855
1086.5701	591.258
1086.8201	532.5982
1087.0701	530.9235
1087.3201	582.70844
1087.5701	589.2448
1087.8201	589.91797
1088.0701	583.71094
1088.3201	560.08777
1088.5701	555.3722
1088.8201	586.80536
1089.0701	578.28467
1089.3201	584.4309
1089.5701	567.3389
1089.8201	587.30334
1090.0701	586.3484
1090.3201	586.3343
1090.5701	578.49915
1090.8201	584.889
1091.0701	583.0808
1091.3201	571.0797
1091.5701	546.26416
1091.8201	576.855
1092.0701	576.5699
1092.3201	576.99207
1092.5701	565.7105
1092.8201	562.2824
1093.0701	558.89374
1093.3201	548.7246
1093.5701	526.51117
1093.8201	461.31006
1094.0701	528.7625
1094.3201	550.3978
1094.5701	560.2035
1094.8201	560.2716
1095.0701	563.598
1095.3201	543.20123
1095.5701	571.23956
1095.8201	539.349
1096.0701	574.41187
1096.3201	562.55853
1096.5701	518.0202
1096.8201	565.8353
1097.0701	572.51636
1097.3201	568.5519
1097.5701	575.2055
1097.8201	532.71515
1098.0701	549.61835
1098.3201	548.32965
1098.5701	558.5395
1098.8201	567.3171
1099.0701	567.7381
1099.3201	573.83746
1099.5701	567.0837
1099.8201	567.8387
1100.0701	571.0608
1100.3201	569.5718
1100.5701	565.88855
1100.8201	572.4398
1101.0701	566.41095
1101.3201	549.0588
1101.5701	563.39667
1101.8201	517.42163
1102.0701	561.79205
1102.3201	564.41394
1102.5701	568.4357
1102.8201	556.1837
1103.0701	567.1978
1103.3201	567.0239
1103.5701	567.66486
1103.8201	557.1249
1104.0701	563.26074
1104.3201	568.9242
1104.5701	556.37805
1104.8201	557.8702
1105.0701	567.3755
1105.3201	562.96796
1105.5701	557.8292
1105.8201	558.1778
1106.0701	565.447
1106.3201	563.6956
1106.5701	565.19244
1106.8201	558.46857
1107.0701	565.90283
1107.3201	562.2138
1107.5701	566.1818
1107.8201	558.0404
1108.0701	556.1331
1108.3201	563.20715
1108.5701	563.7025
1108.8201	561.7969
1109.0701	551.3048
1109.3201	563.42377
1109.5701	562.4641
1109.8201	554.243
1110.0701	560.7958
1110.3201	557.256
1110.5701	560.58093
1110.8201	558.8065
1111.0701	558.4618
1111.3201	556.21576
1111.5701	563.4498
1111.8201	558.70996
1112.0701	532.2761
1112.3201	556.94293
1112.5701	554.1442
1112.8201	559.2443
1113.0701	531.3533
1113.3201	548.0355
1113.5701	557.4543
1113.8201	561.1213
1114.0701	555.0309
1114.3201	558.2421
1114.5701	542.3556
1114.8201	549.75507
1115.0701	560.08655
1115.3201	553.2374
1115.5701	559.11304
1115.8201	535.8392
1116.0701	554.89044
1116.3201	555.091
1116.5701	558.42065
1116.8201	551.9479
1117.0701	547.679
1117.3201	551.3408
1117.5701	554.1261
1117.8201	551.10345
1118.0701	551.0145
1118.3201	550.96466
1118.5701	539.37085
1118.8201	516.1215
1119.0701	540.9321
1119.3201	554.6974
1119.5701	522.17456
1119.8201	542.8959
1120.0701	541.1231
1120.3201	547.64703
1120.5701	546.0578
1120.8201	548.65546
1121.0701	549.1851
1121.3201	543.0534
1121.5701	551.3896
1121.8201	549.325
1122.0701	548.14795
1122.3201	549.16296
1122.5701	549.891
1122.8201	536.3615
1123.0701	548.7668
1123.3201	548.0474
1123.5701	549.932
1123.8201	546.64075
1124.0701	547.1288
1124.3201	536.14197
1124.5701	544.0374
1124.8201	548.5149
1125.0701	518.9734
1125.3201	504.09085
1125.5701	500.588
1125.8201	544.87103
1126.0701	532.4416
1126.3201	544.9128
1126.5701	547.5364
1126.8201	542.9548
1127.0701	547.07874
1127.3201	543.5311
1127.5701	536.61676
1127.8201	536.0742
1128.0701	545.581
1128.3201	540.9193
1128.5701	535.9605
1128.8201	537.01874
1129.0701	498.584
1129.3201	537.53735
1129.5701	524.3747
1129.8201	519.112
1130.0701	543.1711
1130.3201	535.0422
1130.5701	541.5012
1130.8201	527.3862
1131.0701	514.2556
1131.3201	539.10455
1131.5701	532.78546
1131.8201	538.2238
1132.0701	531.7426
1132.3201	537.3577
1132.5701	540.8826
1132.8201	534.1296
1133.0701	503.98932
1133.3201	526.5444
1133.5701	533.44824
1133.8201	527.3447
1134.0701	536.8389
1134.3201	538.5632
1134.5701	534.42535
1134.8201	531.75916
1135.0701	534.80396
1135.3201	526.30554
1135.5701	524.6968
1135.8201	535.08594
1136.0701	531.8312
1136.3201	537.0128
1136.5701	536.5189
1136.8201	531.47217
1137.0701	533.6941
1137.3201	502.50385
1137.5701	531.6215
1137.8201	529.8372
1138.0701	498.23096
1138.3201	534.1538
1138.5701	525.15265
1138.8201	529.6165
1139.0701	504.73004
1139.3201	522.01117
1139.5701	529.4799
1139.8201	520.4673
1140.0701	520.27844
1140.3201	477.33466
1140.5701	519.539
1140.8201	521.28326
1141.0701	524.5696
1141.3201	524.60077
1141.5701	527.20325
1141.8201	527.1523
1142.0701	525.09503
1142.3201	498.78314
1142.5701	527.1459
1142.8201	523.8244
1143.0701	527.3314
1143.3201	521.54596
1143.5701	521.50885
1143.8201	496.40704
1144.0701	522.423
1144.3201	524.3287
1144.5701	511.86557
1144.8201	518.2941
1145.0701	526.4189
1145.3201	526.76447
1145.5701	521.3873
1145.8201	519.60364
1146.0701	527.1327
1146.3201	522.9232
1146.5701	524.5736
1146.8201	524.64777
1147.0701	519.78375
1147.3201	516.79865
1147.5701	520.7572
1147.8201	522.10736
1148.0701	518.2838
1148.3201	522.06775
1148.5701	509.17615
1148.8201	523.03577
1149.0701	520.75415
1149.3201	517.5052
1149.5701	521.1327
1149.8201	522.2908
1150.0701	520.4477
1150.3201	507.70126
1150.5701	521.7422
1150.8201	520.6569
1151.0701	516.403
1151.3201	521.2268
1151.5701	515.90393
1151.8201	510.33908
1152.0701	519.78937
1152.3201	507.4603
1152.5701	515.87555
1152.8201	514.2048
1153.0701	517.47687
1153.3201	519.3568
1153.5701	517.11584
1153.8201	518.83905
1154.0701	508.71143
1154.3201	518.57306
1154.5701	518.6567
1154.8201	518.3016
1155.0701	515.6677
1155.3201	512.44684
1155.5701	516.955
1155.8201	516.32635
1156.0701	514.0618
1156.3201	516.94885
1156.5701	511.39377
1156.8201	515.23444
1157.0701	515.2768
1157.3201	512.1908
1157.5701	512.1328
1157.8201	508.73553
1158.0701	513.06506
1158.3201	513.31
1158.5701	508.85553
1158.8201	507.4951
1159.0701	499.36444
1159.3201	468.5144
1159.5701	507.08746
1159.8201	512.26575
1160.0701	500.1802
1160.3201	508.49457
1160.5701	510.22296
1160.8201	471.9756
1161.0701	464.27643
1161.3201	507.37616
1161.5701	502.0364
1161.8201	499.53
1162.0701	507.58487
1162.3201	510.62213
1162.5701	507.42398
1162.8201	490.5735
1163.0701	508.40826
1163.3201	508.3322
1163.5701	509.36633
1163.8201	472.3611
1164.0701	493.9316
1164.3201	506.9363
1164.5701	508.05927
1164.8201	500.26337
1165.0701	506.69037
1165.3201	493.86337
1165.5701	501.97974
1165.8201	485.74915
1166.0701	488.42938
1166.3201	504.19525
1166.5701	503.57703
1166.8201	497.23358
1167.0701	484.68747
1167.3201	499.5491
1167.5701	504.15317
1167.8201	504.80136
1168.0701	501.51978
1168.3201	499.80515
1168.5701	503.94507
1168.8201	501.83
1169.0701	450.8041
1169.3201	496.60846
1169.5701	498.49347
1169.8201	500.07855
1170.0701	491.3872
1170.3201	501.94965
1170.5701	502.34897
1170.8201	499.78458
1171.0701	498.56586
1171.3201	501.353
1171.5701	497.5334
1171.8201	501.72083
1172.0701	499.82547
1172.3201	495.61578
1172.5701	498.82666
1172.8201	498.9726
1173.0701	496.2168
1173.3201	499.10907
1173.5701	495.19446
1173.8201	494.9678
1174.0701	493.94345
1174.3201	496.48492
1174.5701	496.43457
1174.8201	468.55402
1175.0701	490.02594
1175.3201	456.37872
1175.5701	460.03098
1175.8201	496.34766
1176.0701	496.393
1176.3201	490.8417
1176.5701	494.09177
1176.8201	492.0099
1177.0701	489.6066
1177.3201	472.93018
1177.5701	494.27066
1177.8201	481.83374
1178.0701	489.23764
1178.3201	453.5937
1178.5701	493.64954
1178.8201	492.22913
1179.0701	490.40674
1179.3201	493.19333
1179.5701	492.072
1179.8201	489.75385
1180.0701	479.74155
1180.3201	492.2425
1180.5701	492.23566
1180.8201	491.99054
1181.0701	466.80615
1181.3201	488.8233
1181.5701	490.98312
1181.8201	489.3316
1182.0701	481.26422
1182.3201	488.37567
1182.5701	478.83514
1182.8201	378.76056
1183.0701	478.98557
1183.3201	487.69348
1183.5701	489.4873
1183.8201	462.48383
1184.0701	484.5434
1184.3201	486.5622
1184.5701	488.6974
1184.8201	472.68103
1185.0701	484.07883
1185.3201	486.53976
1185.5701	486.32632
1185.8201	487.70178
1186.0701	484.3388
1186.3201	476.12506
1186.5701	486.6361
1186.8201	487.195
1187.0701	482.69818
1187.3201	478.87894
1187.5701	484.4386
1187.8201	482.94858
1188.0701	475.7901
1188.3201	402.2037
1188.5701	477.90298
1188.8201	482.69263
1189.0701	468.25497
1189.3201	466.12903
1189.5701	459.88205
1189.8201	484.3057
1190.0701	483.2865
1190.3201	481.1801
1190.5701	482.46124
1190.8201	481.01773
1191.0701	482.65118
1191.3201	482.17026
1191.5701	482.95508
1191.8201	482.84875
1192.0701	480.59384
1192.3201	482.25342
1192.5701	478.91876
1192.8201	481.5597
1193.0701	481.09576
1193.3201	480.48328
1193.5701	478.46313
1193.8201	481.02448
1194.0701	478.68164
1194.3201	477.64252
1194.5701	479.65576
1194.8201	478.88687
1195.0701	456.7168
1195.3201	477.31738
1195.5701	465.57706
1195.8201	476.38586
1196.0701	478.16473
1196.3201	477.02173
1196.5701	478.06168
1196.8201	475.97266
1197.0701	473.17273
1197.3201	417.66357
1197.5701	474.80438
1197.8201	476.53033
1198.0701	474.8153
1198.3201	417.89337
1198.5701	459.33087
1198.8201	471.8123
1199.0701	422.4089
1199.3201	468.0576
1199.5701	473.78635
1199.8201	474.69852
1200.0701	472.50226
1200.3201	471.39874
1200.5701	459.2314
1200.8201	473.06134
1201.0701	472.25317
1201.3201	473.1477
1201.5701	472.31403
1201.8201	473.3626
1202.0701	471.0348
1202.3201	470.0165
1202.5701	469.8984
1202.8201	469.36862
1203.0701	396.61496
1203.3201	456.37283
1203.5701	468.9056
1203.8201	466.2192
1204.0701	452.89423
1204.3201	467.61517
1204.5701	469.0523
1204.8201	470.1482
1205.0701	470.16327
1205.3201	462.61655
1205.5701	468.16425
1205.8201	469.35876
1206.0701	468.28494
1206.3201	463.42044
1206.5701	464.863
1206.8201	462.79565
1207.0701	465.20844
1207.3201	465.58704
1207.5701	465.47357
1207.8201	464.1556
1208.0701	449.52634
1208.3201	340.7865
1208.5701	448.5123
1208.8201	461.97278
1209.0701	465.43323
1209.3201	463.521
1209.5701	461.6245
1209.8201	461.44385
1210.0701	460.0186
1210.3201	416.56277
1210.5701	464.44748
1210.8201	463.24905
1211.0701	450.93304
1211.3201	462.30908
1211.5701	460.4646
1211.8201	457.37976
1212.0701	459.17252
1212.3201	464.36975
1212.5701	460.9976
1212.8201	461.99142
1213.0701	460.4828
1213.3201	462.23438
1213.5701	461.89648
1213.8201	462.84625
1214.0701	461.88953
1214.3201	461.82324
1214.5701	457.746
1214.8201	460.75894
1215.0701	459.43936
1215.3201	457.77176
1215.5701	461.09015
1215.8201	460.5373
1216.0701	460.94537
1216.3201	460.66196
1216.5701	459.4394
1216.8201	456.15857
1217.0701	459.7041
1217.3201	457.18204
1217.5701	458.9777
1217.8201	456.79715
1218.0701	458.85037
1218.3201	453.86002
1218.5701	458.24402
1218.8201	456.4755
1219.0701	450.0958
1219.3201	456.13507
1219.5701	452.1505
1219.8201	446.9299
1220.0701	446.64886
1220.3201	457.3015
1220.5701	452.88974
1220.8201	454.4253
1221.0701	454.3364
1221.3201	437.44934
1221.5701	448.76096
1221.8201	456.14093
1222.0701	454.05576
1222.3201	455.72034
1222.5701	454.20648
1222.8201	444.2006
1223.0701	453.09595
1223.3201	450.73273
1223.5701	454.98462
1223.8201	451.39072
1224.0701	452.4461
1224.3201	448.50476
1224.5701	448.64618
1224.8201	447.50473
1225.0701	443.84314
1225.3201	453.1616
1225.5701	448.081
1225.8201	452.8213
1226.0701	451.51425
1226.3201	449.11212
1226.5701	449.33722
1226.8201	449.37854
1227.0701	407.3985
1227.3201	450.5702
1227.5701	449.79672
1227.8201	449.45694
1228.0701	448.21353
1228.3201	449.2619
1228.5701	449.6866
1228.8201	448.0968
1229.0701	448.84946
1229.3201	450.45062
1229.5701	448.33557
1229.8201	445.13995
1230.0701	449.22546
1230.3201	447.97482
1230.5701	447.30637
1230.8201	446.29926
1231.0701	444.7173
1231.3201	440.08447
1231.5701	447.421
1231.8201	447.2245
1232.0701	442.61066
1232.3201	443.01358
1232.5701	447.34653
1232.8201	445.16705
1233.0701	439.09662
1233.3201	443.0561
1233.5701	427.1802
1233.8201	437.3448
1234.0701	442.35785
1234.3201	432.74426
1234.5701	442.47067
1234.8201	438.0924
1235.0701	442.83676
1235.3201	435.9552
1235.5701	440.28427
1235.8201	419.29626
1236.0701	424.98288
1236.3201	433.04977
1236.5701	436.93018
1236.8201	438.01843
1237.0701	436.8826
1237.3201	443.33777
1237.5701	443.57648
1237.8201	443.07465
1238.0701	440.63602
1238.3201	442.92087
1238.5701	442.05075
1238.8201	441.95218
1239.0701	427.6076
1239.3201	440.76544
1239.5701	421.19757
1239.8201	439.08044
1240.0701	431.75204
1240.3201	431.4176
1240.5701	436.50732
1240.8201	437.17178
1241.0701	440.17868
1241.3201	436.82858
1241.5701	428.97498
1241.8201	431.8888
1242.0701	437.68558
1242.3201	418.69763
1242.5701	434.42603
1242.8201	437.5967
1243.0701	437.52814
1243.3201	407.60043
1243.5701	438.0116
1243.8201	437.4747
1244.0701	436.57196
1244.3201	437.5213
1244.5701	436.707
1244.8201	437.49924
1245.0701	435.38696
1245.3201	437.1822
1245.5701	436.1137
1245.8201	432.27545
1246.0701	434.65268
1246.3201	434.10068
1246.5701	435.07047
1246.8201	433.12076
1247.0701	421.60312
1247.3201	434.6424
1247.5701	430.50928
1247.8201	435.41266
1248.0701	434.16962
1248.3201	434.82416
1248.5701	432.88803
1248.8201	434.5479
1249.0701	433.69843
1249.3201	428.59744
1249.5701	429.89038
1249.8201	432.01038
1250.0701	431.18506
1250.3201	430.64175
1250.5701	432.45435
1250.8201	418.34528
1251.0701	421.64545
1251.3201	418.89438
1251.5701	412.2882
1251.8201	402.40924
1252.0701	420.4164
1252.3201	413.91812
1252.5701	428.2701
1252.8201	426.86856
1253.0701	425.93738
1253.3201	413.74658
1253.5701	428.20044
1253.8201	427.98553
1254.0701	427.25854
1254.3201	428.10104
1254.5701	428.76306
1254.8201	425.97937
1255.0701	423.58646
1255.3201	428.4833
1255.5701	427.15396
1255.8201	425.43246
1256.0701	414.4499
1256.3201	417.20395
1256.5701	421.53897
1256.8201	419.1474
1257.0701	425.05182
1257.3201	427.0111
1257.5701	427.4348
1257.8201	425.44183
1258.0701	401.52768
1258.3201	419.82336
1258.5701	426.99124
1258.8201	420.36102
1259.0701	422.79465
1259.3201	426.1762
1259.5701	426.22424
1259.8201	425.31766
1260.0701	414.67194
1260.3201	423.84476
1260.5701	423.37268
1260.8201	416.1048
1261.0701	412.8698
1261.3201	407.62085
1261.5701	414.52106
1261.8201	422.98068
1262.0701	423.01056
1262.3201	423.89685
1262.5701	422.608
1262.8201	422.00775
1263.0701	421.47925
1263.3201	422.34653
1263.5701	422.28345
1263.8201	386.6486
1264.0701	421.95624
1264.3201	421.2838
1264.5701	416.7842
1264.8201	407.79175
1265.0701	421.27942
1265.3201	421.4735
1265.5701	419.2467
1265.8201	418.8877
1266.0701	419.6601
1266.3201	416.5786
1266.5701	416.80975
1266.8201	418.35574
1267.0701	417.58868
1267.3201	420.0329
1267.5701	419.4666
1267.8201	396.79327
1268.0701	416.93402
1268.3201	414.93512
1268.5701	416.4947
1268.8201	417.92487
1269.0701	417.98355
1269.3201	415.40616
1269.5701	415.82516
1269.8201	413.2327
1270.0701	416.05316
1270.3201	416.16064
1270.5701	410.57568
1270.8201	406.43616
1271.0701	416.09985
1271.3201	413.0458
1271.5701	416.36517
1271.8201	415.99036
1272.0701	416.44803
1272.3201	416.549
1272.5701	414.68378
1272.8201	414.21237
1273.0701	414.86172
1273.3201	413.34595
1273.5701	413.2486
1273.8201	411.11414
1274.0701	408.88196
1274.3201	411.78296
1274.5701	413.59207
1274.8201	413.61322
1275.0701	412.62653
1275.3201	413.6017
1275.5701	413.4569
1275.8201	411.86914
1276.0701	412.8583
1276.3201	412.04883
1276.5701	411.35086
1276.8201	409.7246
1277.0701	410.62097
1277.3201	410.00922
1277.5701	410.32928
1277.8201	409.42188
1278.0701	408.08044
1278.3201	408.6453
1278.5701	408.216
1278.8201	405.1377
1279.0701	404.56525
1279.3201	402.55652
1279.5701	403.4834
1279.8201	401.04245
1280.0701	398.42078
1280.3201	396.86084
1280.5701	393.87833
1280.8201	379.50885
1281.0701	383.70743
1281.3201	374.3088
1281.5701	348.8963
1281.8201	300.7214
1282.0701	355.4975
1282.3201	371.31598
1282.5701	376.8539
1282.8201	387.85004
1283.0701	390.7785
1283.3201	395.94394
1283.5701	398.30975
1283.8201	399.08093
1284.0701	394.8891
1284.3201	401.2471
1284.5701	401.87283
1284.8201	399.71887
1285.0701	403.51016
1285.3201	403.2538
1285.5701	404.18393
1285.8201	404.33408
1286.0701	404.4611
1286.3201	403.1671
1286.5701	404.65485
1286.8201	404.06247
1287.0701	398.75385
1287.3201	403.03513
1287.5701	402.69962
1287.8201	402.32855
1288.0701	393.9698
1288.3201	403.57092
1288.5701	402.06238
1288.8201	404.45126
1289.0701	404.15463
1289.3201	403.53418
1289.5701	397.85968
1289.8201	401.389
1290.0701	376.30023
1290.3201	401.65347
1290.5701	402.5726
1290.8201	395.98657
1291.0701	398.53406
1291.3201	401.7587
1291.5701	402.0061
1291.8201	400.39832
1292.0701	400.29584
1292.3201	390.77176
1292.5701	399.87537
1292.8201	399.53644
1293.0701	399.7058
1293.3201	397.1085
1293.5701	391.94342
1293.8201	399.16196
1294.0701	396.241
1294.3201	400.43066
1294.5701	396.9746
1294.8201	397.12842
1295.0701	396.62842
1295.3201	399.17514
1295.5701	390.43942
1295.8201	399.26276
1296.0701	397.299
1296.3201	399.37195
1296.5701	386.08832
1296.8201	397.11362
1297.0701	386.3629
1297.3201	397.76385
1297.5701	381.2486
1297.8201	396.57986
1298.0701	397.68417
1298.3201	396.84512
1298.5701	396.08344
1298.8201	394.69055
1299.0701	393.51233
1299.3201	397.27542
1299.5701	396.53748
1299.8201	396.23206
1300.0701	395.31488
1300.3201	390.7105
1300.5701	394.6365
1300.8201	395.49945
1301.0701	394.65512
1301.3201	395.669
1301.5701	392.96173
1301.8201	395.0028
1302.0701	394.77112
1302.3201	394.9274
1302.5701	395.02386
1302.8201	388.93707
1303.0701	381.4298
1303.3201	385.91733
1303.5701	393.31525
1303.8201	386.7532
1304.0701	390.09918
1304.3201	391.51535
1304.5701	390.72678
1304.8201	389.1504
1305.0701	392.11993
1305.3201	388.54037
1305.5701	393.19818
1305.8201	390.60028
1306.0701	393.01602
1306.3201	375.86713
1306.5701	390.51562
1306.8201	390.17255
1307.0701	390.9041
1307.3201	390.09064
1307.5701	388.86234
1307.8201	389.97113
1308.0701	391.9253
1308.3201	391.43774
1308.5701	386.32962
1308.8201	390.6936
1309.0701	390.9219
1309.3201	390.8113
1309.5701	380.4689
1309.8201	380.9352
1310.0701	389.96442
1310.3201	382.94092
1310.5701	389.2738
1310.8201	388.93185
1311.0701	389.3803
1311.3201	388.50082
1311.5701	388.01303
1311.8201	381.25287
1312.0701	377.27707
1312.3201	326.6194
1312.5701	384.36234
1312.8201	387.40253
1313.0701	384.80533
1313.3201	386.82062
1313.5701	372.0549
1313.8201	387.53027
1314.0701	387.43744
1314.3201	385.8658
1314.5701	384.17865
1314.8201	373.53094
1315.0701	336.14557
1315.3201	375.06732
1315.5701	383.16943
1315.8201	380.77344
1316.0701	385.1245
1316.3201	384.71634
1316.5701	383.39612
1316.8201	384.90796
1317.0701	385.22006
1317.3201	385.61646
1317.5701	369.35153
1317.8201	377.90735
1318.0701	374.49896
1318.3201	384.3175
1318.5701	384.3579
1318.8201	383.8982
1319.0701	381.3429
1319.3201	383.21133
1319.5701	381.61493
1319.8201	377.98962
1320.0701	380.2522
1320.3201	382.8259
1320.5701	382.60406
1320.8201	374.98004
1321.0701	378.48935
1321.3201	375.13324
1321.5701	381.9395
1321.8201	379.7971
1322.0701	381.99933
1322.3201	379.64066
1322.5701	381.81857
1322.8201	382.14706
1323.0701	380.78827
1323.3201	381.98178
1323.5701	380.4959
1323.8201	381.59454
1324.0701	381.38885
1324.3201	380.3342
1324.5701	380.77954
1324.8201	377.75662
1325.0701	375.52545
1325.3201	378.2635
1325.5701	379.60425
1325.8201	379.67697
1326.0701	373.98514
1326.3201	378.6682
1326.5701	370.04483
1326.8201	374.79123
1327.0701	379.3144
1327.3201	378.14285
1327.5701	379.17596
1327.8201	376.79172
1328.0701	365.3311
1328.3201	377.7853
1328.5701	369.70087
1328.8201	350.6419
1329.0701	376.78876
1329.3201	360.8569
1329.5701	376.50598
1329.8201	375.70004
1330.0701	376.40607
1330.3201	370.107
1330.5701	375.94455
1330.8201	370.29327
1331.0701	376.41382
1331.3201	376.8783
1331.5701	376.0054
1331.8201	335.20654
1332.0701	375.3619
1332.3201	375.93665
1332.5701	370.49557
1332.8201	371.05118
1333.0701	375.2966
1333.3201	375.02588
1333.5701	375.10535
1333.8201	374.83868
1334.0701	373.12442
1334.3201	370.56134
1334.5701	370.53967
1334.8201	374.13937
1335.0701	373.3255
1335.3201	356.30234
1335.5701	373.70392
1335.8201	372.58023
1336.0701	372.69653
1336.3201	373.21405
1336.5701	372.6839
1336.8201	371.24905
1337.0701	367.1915
1337.3201	371.7346
1337.5701	371.98096
1337.8201	371.7468
1338.0701	372.20605
1338.3201	366.37103
1338.5701	366.14166
1338.8201	362.40314
1339.0701	364.33978
1339.3201	357.17358
1339.5701	366.76978
1339.8201	365.11066
1340.0701	369.49643
1340.3201	369.56488
1340.5701	370.40454
1340.8201	365.53268
1341.0701	369.9721
1341.3201	369.35364
1341.5701	362.23853
1341.8201	369.1245
1342.0701	367.53088
1342.3201	369.62613
1342.5701	366.31824
1342.8201	368.36258
1343.0701	368.3822
1343.3201	364.258
1343.5701	368.75046
1343.8201	368.91202
1344.0701	368.1566
1344.3201	367.8673
1344.5701	368.04745
1344.8201	366.76456
1345.0701	366.44272
1345.3201	361.06775
1345.5701	365.44345
1345.8201	359.07443
1346.0701	366.91644
1346.3201	365.8951
1346.5701	365.93555
1346.8201	365.88477
1347.0701	366.47345
1347.3201	365.3943
1347.5701	362.90494
1347.8201	366.1066
1348.0701	365.68268
1348.3201	363.0469
1348.5701	365.51346
1348.8201	362.17468
1349.0701	365.1193
1349.3201	363.3792
1349.5701	355.08704
1349.8201	364.69662
1350.0701	356.7961
1350.3201	353.04425
1350.5701	364.82166
1350.8201	364.7226
1351.0701	363.83743
1351.3201	364.45004
1351.5701	364.2534
1351.8201	361.05872
1352.0701	363.5937
1352.3201	360.4184
1352.5701	363.06494
1352.8201	362.7144
1353.0701	363.4038
1353.3201	361.00293
1353.5701	362.41254
1353.8201	362.87097
1354.0701	360.91434
1354.3201	362.0802
1354.5701	354.4406
1354.8201	354.3089
1355.0701	360.5801
1355.3201	355.28723
1355.5701	361.18698
1355.8201	355.44165
1356.0701	354.0144
1356.3201	360.65698
1356.5701	339.4746
1356.8201	359.77448
1357.0701	358.90475
1357.3201	359.1671
1357.5701	359.6768
1357.8201	360.3665
1358.0701	357.29062
1358.3201	359.43784
1358.5701	359.6892
1358.8201	351.79715
1359.0701	355.34763
1359.3201	359.0338
1359.5701	358.8608
1359.8201	357.43533
1360.0701	346.56247
1360.3201	355.19507
1360.5701	357.2213
1360.8201	358.03586
1361.0701	358.11066
1361.3201	357.761
1361.5701	357.9428
1361.8201	357.4173
1362.0701	355.4845
1362.3201	357.17883
1362.5701	339.53583
1362.8201	356.5415
1363.0701	352.98172
1363.3201	356.03552
1363.5701	354.11697
1363.8201	356.7503
1364.0701	356.36807
1364.3201	342.8696
1364.5701	356.40588
1364.8201	355.22266
1365.0701	349.76184
1365.3201	355.70905
1365.5701	354.76398
1365.8201	353.21854
1366.0701	354.78687
1366.3201	354.33026
1366.5701	355.03894
1366.8201	338.52466
1367.0701	353.547
1367.3201	354.9438
1367.5701	353.60257
1367.8201	354.30008
1368.0701	348.79337
1368.3201	335.32635
1368.5701	353.5223
1368.8201	350.59766
1369.0701	353.2591
1369.3201	346.60922
1369.5701	352.21655
1369.8201	330.04657
1370.0701	352.2649
1370.3201	349.36002
1370.5701	342.943
1370.8201	352.3697
1371.0701	345.32303
1371.3201	352.2534
1371.5701	352.34238
1371.8201	348.91028
1372.0701	341.86908
1372.3201	350.4825
1372.5701	340.5006
1372.8201	348.69952
1373.0701	347.69556
1373.3201	335.2154
1373.5701	347.95953
1373.8201	350.81314
1374.0701	343.28223
1374.3201	332.83203
1374.5701	349.46368
1374.8201	349.762
1375.0701	346.68613
1375.3201	348.24094
1375.5701	331.17865
1375.8201	347.48563
1376.0701	349.48962
1376.3201	344.7783
1376.5701	338.39084
1376.8201	349.31595
1377.0701	349.0869
1377.3201	346.61438
1377.5701	338.57816
1377.8201	347.4509
1378.0701	348.5956
1378.3201	347.98657
1378.5701	347.7832
1378.8201	347.4203
1379.0701	345.582
1379.3201	347.38184
1379.5701	347.23712
1379.8201	338.1817
1380.0701	346.27722
1380.3201	347.22516
1380.5701	347.02527
1380.8201	344.52267
1381.0701	346.1417
1381.3201	344.9017
1381.5701	336.94373
1381.8201	345.00183
1382.0701	346.5777
1382.3201	342.26193
1382.5701	341.4356
1382.8201	344.96506
1383.0701	336.50058
1383.3201	343.05057
1383.5701	344.4737
1383.8201	345.66165
1384.0701	344.6239
1384.3201	343.99554
1384.5701	344.29733
1384.8201	333.6361
1385.0701	337.36908
1385.3201	342.74524
1385.5701	343.0901
1385.8201	343.16595
1386.0701	343.71005
1386.3201	328.23364
1386.5701	338.61758
1386.8201	341.86343
1387.0701	339.5042
1387.3201	343.2567
1387.5701	341.43414
1387.8201	341.27292
1388.0701	342.92786
1388.3201	342.85773
1388.5701	341.26508
1388.8201	341.089
1389.0701	342.23965
1389.3201	339.7858
1389.5701	337.06375
1389.8201	324.0601
1390.0701	342.02103
1390.3201	339.96277
1390.5701	337.6555
1390.8201	340.25134
1391.0701	341.10352
1391.3201	340.94867
1391.5701	341.16016
1391.8201	336.85028
1392.0701	340.7312
1392.3201	338.22818
1392.5701	337.9076
1392.8201	339.76517
1393.0701	339.89923
1393.3201	337.9673
1393.5701	339.3119
1393.8201	335.30524
1394.0701	331.76953
1394.3201	337.5691
1394.5701	338.23245
1394.8201	335.1081
1395.0701	327.97437
1395.3201	334.47086
1395.5701	337.31024
1395.8201	337.09
1396.0701	335.055
1396.3201	337.3377
1396.5701	336.2754
1396.8201	335.46198
1397.0701	337.99484
1397.3201	337.71243
1397.5701	336.92642
1397.8201	333.01254
1398.0701	336.3641
1398.3201	337.02338
1398.5701	331.27686
1398.8201	337.03528
1399.0701	332.56818
1399.3201	335.11185
1399.5701	313.78247
1399.8201	322.69864
1400.0701	336.0296
1400.3201	331.5985
1400.5701	328.87906
1400.8201	316.57846
1401.0701	334.7789
1401.3201	335.72574
1401.5701	335.39056
1401.8201	334.64075
1402.0701	333.3474
1402.3201	334.37964
1402.5701	320.1605
1402.8201	328.48813
1403.0701	334.3943
1403.3201	334.5354
1403.5701	333.64587
1403.8201	329.222
1404.0701	331.14804
1404.3201	333.3142
1404.5701	334.00082
1404.8201	332.1612
1405.0701	334.1526
1405.3201	333.67993
1405.5701	333.4209
1405.8201	330.89575
1406.0701	325.88525
1406.3201	330.61896
1406.5701	331.26593
1406.8201	331.06784
1407.0701	329.68262
1407.3201	325.47003
1407.5701	330.34515
1407.8201	331.61218
1408.0701	316.88
1408.3201	329.79736
1408.5701	330.43457
1408.8201	331.78757
1409.0701	330.47867
1409.3201	327.5379
1409.5701	329.4431
1409.8201	327.88425
1410.0701	330.7072
1410.3201	328.11783
1410.5701	329.9397
1410.8201	328.15677
1411.0701	327.49
1411.3201	310.57355
1411.5701	326.6394
1411.8201	326.78644
1412.0701	310.97195
1412.3201	326.0194
1412.5701	324.88275
1412.8201	307.39783
1413.0701	323.76337
1413.3201	327.49478
1413.5701	327.626
1413.8201	322.9565
1414.0701	328.1747
1414.3201	327.61163
1414.5701	327.1092
1414.8201	326.65448
1415.0701	324.08594
1415.3201	327.41785
1415.5701	320.6247
1415.8201	317.72504
1416.0701	322.55734
1416.3201	324.96017
1416.5701	326.69946
1416.8201	323.7631
1417.0701	324.34393
1417.3201	327.42212
1417.5701	326.36304
1417.8201	325.64438
1418.0701	323.36673
1418.3201	313.2211
1418.5701	325.53162
1418.8201	321.25653
1419.0701	324.13873
1419.3201	325.04718
1419.5701	318.34335
1419.8201	324.956
1420.0701	321.10092
1420.3201	316.25696
1420.5701	308.75134
1420.8201	324.9907
1421.0701	322.2071
1421.3201	321.04556
1421.5701	324.91235
1421.8201	322.94437
1422.0701	311.1869
1422.3201	317.63406
1422.5701	309.45505
1422.8201	322.25525
1423.0701	324.02252
1423.3201	322.0255
1423.5701	295.0285
1423.8201	309.85623
1424.0701	320.32544
1424.3201	320.81628
1424.5701	322.76248
1424.8201	319.0024
1425.0701	318.2559
1425.3201	305.82422
1425.5701	318.3562
1425.8201	307.9477
1426.0701	307.5933
1426.3201	321.1454
1426.5701	321.05942
1426.8201	319.57593
1427.0701	293.2647
1427.3201	319.24466
1427.5701	319.97867
1427.8201	321.8591
1428.0701	318.64383
1428.3201	319.9663
1428.5701	296.30603
1428.8201	320.40833
1429.0701	307.03973
1429.3201	286.75424
1429.5701	316.94247
1429.8201	314.2664
1430.0701	316.1464
1430.3201	319.14456
1430.5701	312.7102
1430.8201	296.90732
1431.0701	315.25333
1431.3201	316.3414
1431.5701	318.2886
1431.8201	312.076
1432.0701	318.79904
1432.3201	315.08887
1432.5701	319.54562
1432.8201	318.4411
1433.0701	315.67236
1433.3201	317.66058
1433.5701	314.5547
1433.8201	316.5097
1434.0701	316.88104
1434.3201	315.55826
1434.5701	314.57214
1434.8201	316.26605
1435.0701	315.62253
1435.3201	313.08688
1435.5701	316.074
1435.8201	316.74
1436.0701	310.21347
1436.3201	316.64792
1436.5701	317.4577
1436.8201	316.61243
1437.0701	313.548
1437.3201	313.68564
1437.5701	315.36856
1437.8201	314.135
1438.0701	313.3205
1438.3201	315.6091
1438.5701	315.29785
1438.8201	314.96973
1439.0701	311.11505
1439.3201	313.3005
1439.5701	310.63196
1439.8201	307.36554
1440.0701	252.28339
1440.3201	297.50418
1440.5701	309.826
1440.8201	314.69073
1441.0701	314.58466
1441.3201	311.8562
1441.5701	310.46167
1441.8201	310.0824
1442.0701	285.99286
1442.3201	310.27905
1442.5701	307.50494
1442.8201	297.8228
1443.0701	308.23367
1443.3201	310.3225
1443.5701	311.6277
1443.8201	301.911
1444.0701	308.61694
1444.3201	286.87656
1444.5701	312.59573
1444.8201	312.04138
1445.0701	311.78494
1445.3201	312.53915
1445.5701	308.43814
1445.8201	300.74466
1446.0701	307.59808
1446.3201	304.78134
1446.5701	305.29797
1446.8201	309.6851
1447.0701	310.13983
1447.3201	311.39807
1447.5701	309.2066
1447.8201	307.22043
1448.0701	295.93295
1448.3201	304.35394
1448.5701	306.01575
1448.8201	310.49902
1449.0701	300.4618
1449.3201	307.76956
1449.5701	310.29462
1449.8201	293.94498
1450.0701	303.39304
1450.3201	295.75354
1450.5701	307.76944
1450.8201	307.28857
1451.0701	299.82477
1451.3201	281.43246
1451.5701	309.29825
1451.8201	307.60236
1452.0701	305.91235
1452.3201	296.56778
1452.5701	303.36444
1452.8201	305.41614
1453.0701	305.12607
1453.3201	305.38885
1453.5701	306.96704
1453.8201	302.2662
1454.0701	302.41843
1454.3201	262.86047
1454.5701	295.75107
1454.8201	304.84418
1455.0701	305.3556
1455.3201	304.81335
1455.5701	278.6622
1455.8201	302.90463
1456.0701	306.14493
1456.3201	305.59607
1456.5701	287.77362
1456.8201	296.3765
1457.0701	305.5113
1457.3201	304.09985
1457.5701	304.50214
1457.8201	304.61484
1458.0701	305.01648
1458.3201	305.4201
1458.5701	306.12067
1458.8201	294.82343
1459.0701	303.59485
1459.3201	296.38586
1459.5701	304.60083
1459.8201	303.1007
1460.0701	297.5329
1460.3201	292.6325
1460.5701	301.59753
1460.8201	304.76108
1461.0701	302.33942
1461.3201	304.24228
1461.5701	292.3587
1461.8201	303.0776
1462.0701	296.91837
1462.3201	303.65808
1462.5701	303.37888
1462.8201	292.61722
1463.0701	296.40576
1463.3201	303.5713
1463.5701	294.04633
1463.8201	291.89578
1464.0701	297.96625
1464.3201	301.5464
1464.5701	302.1783
1464.8201	291.16406
1465.0701	271.46643
1465.3201	276.4834
1465.5701	297.60617
1465.8201	299.79855
1466.0701	302.27838
1466.3201	301.8234
1466.5701	300.38123
1466.8201	300.8441
1467.0701	301.48474
1467.3201	295.96167
1467.5701	300.2552
1467.8201	298.381
1468.0701	295.936
1468.3201	298.82538
1468.5701	300.06055
1468.8201	300.5723
1469.0701	286.00125
1469.3201	301.31073
1469.5701	299.1225
1469.8201	298.6509
1470.0701	287.00894
1470.3201	279.05057
1470.5701	299.46323
1470.8201	290.54028
1471.0701	289.45972
1471.3201	299.92072
1471.5701	291.62338
1471.8201	294.29822
1472.0701	284.5266
1472.3201	287.22754
1472.5701	298.45193
1472.8201	297.8735
1473.0701	298.4892
1473.3201	295.93274
1473.5701	298.9412
1473.8201	283.24237
1474.0701	295.13092
1474.3201	298.06897
1474.5701	295.27087
1474.8201	295.88562
1475.0701	273.6134
1475.3201	289.66748
1475.5701	285.78854
1475.8201	295.25983
1476.0701	297.5897
1476.3201	296.1165
1476.5701	294.46927
1476.8201	288.9261
1477.0701	288.8141
1477.3201	294.308
1477.5701	296.3936
1477.8201	291.11578
1478.0701	281.79074
1478.3201	276.64453
1478.5701	297.20105
1478.8201	294.63367
1479.0701	294.87088
1479.3201	293.82214
1479.5701	294.83432
1479.8201	294.9446
1480.0701	291.79144
1480.3201	293.99237
1480.5701	283.25494
1480.8201	289.83212
1481.0701	292.61053
1481.3201	295.32602
1481.5701	283.4361
1481.8201	294.05585
1482.0701	293.94656
1482.3201	292.21686
1482.5701	269.04974
1482.8201	292.52435
1483.0701	293.1864
1483.3201	283.91577
1483.5701	288.09402
1483.8201	289.3528
1484.0701	291.89832
1484.3201	286.00406
1484.5701	293.18103
1484.8201	288.00998
1485.0701	280.68127
1485.3201	290.43045
1485.5701	293.21854
1485.8201	291.91257
1486.0701	278.08514
1486.3201	285.03915
1486.5701	286.99344
1486.8201	287.6758
1487.0701	281.43393
1487.3201	273.14413
1487.5701	250.50194
1487.8201	185.1782
1488.0701	270.83734
1488.3201	286.20917
1488.5701	288.0795
1488.8201	289.68597
1489.0701	289.86752
1489.3201	290.61182
1489.5701	288.69702
1489.8201	273.75046
1490.0701	288.8954
1490.3201	280.346
1490.5701	289.73453
1490.8201	285.84964
1491.0701	272.6865
1491.3201	289.53284
1491.5701	287.4302
1491.8201	287.24197
1492.0701	290.52225
1492.3201	289.53732
1492.5701	288.47137
1492.8201	286.7111
1493.0701	290.1686
1493.3201	288.17224
1493.5701	288.2005
1493.8201	279.1314
1494.0701	289.24106
1494.3201	289.97095
1494.5701	286.2946
1494.8201	284.23517
1495.0701	289.09625
1495.3201	287.70648
1495.5701	262.4792
1495.8201	280.61502
1496.0701	286.06326
1496.3201	286.5581
1496.5701	287.6759
1496.8201	272.80835
1497.0701	287.77856
1497.3201	284.65768
1497.5701	288.52948
1497.8201	285.5579
1498.0701	269.2285
1498.3201	283.19608
1498.5701	286.42078
1498.8201	271.2673
1499.0701	286.14328
1499.3201	287.031
1499.5701	285.76205
1499.8201	285.6733
1500.0701	285.8841
1500.3201	282.1237
1500.5701	286.10135
1500.8201	281.0092
1501.0701	282.52042
1501.3201	272.42795
1501.5701	282.71387
1501.8201	269.37238
1502.0701	277.88135
1502.3201	247.11484
1502.5701	203.42165
1502.8201	273.688
1503.0701	280.68503
1503.3201	281.9187
1503.5701	277.50436
1503.8201	265.1041
1504.0701	207.48013
1504.3201	275.8438
1504.5701	270.38947
1504.8201	227.9329
1505.0701	256.53027
1505.3201	277.10538
1505.5701	283.49734
1505.8201	281.55127
1506.0701	281.8614
1506.3201	276.5584
1506.5701	283.49493
1506.8201	282.41272
1507.0701	280.8463
1507.3201	282.36942
1507.5701	282.94348
1507.8201	264.14166
1508.0701	282.70673
1508.3201	282.45154
1508.5701	283.24887
1508.8201	282.06454
1509.0701	282.67236
1509.3201	280.92963
1509.5701	254.3879
1509.8201	279.2065
1510.0701	277.14578
1510.3201	282.06046
1510.5701	279.0672
1510.8201	281.9911
1511.0701	281.68225
1511.3201	280.61954
1511.5701	275.1929
1511.8201	274.90292
1512.0701	273.86075
1512.3201	266.27713
1512.5701	280.01492
1512.8201	280.36002
1513.0701	280.968
1513.3201	279.25153
1513.5701	262.90436
1513.8201	275.92062
1514.0701	280.74512
1514.3201	269.01495
1514.5701	278.8366
1514.8201	279.75946
1515.0701	280.57938
1515.3201	278.0232
1515.5701	273.88165
1515.8201	266.8368
1516.0701	274.33203
1516.3201	270.36578
1516.5701	278.831
1516.8201	271.03375
1517.0701	278.99982
1517.3201	277.49533
1517.5701	274.6337
1517.8201	275.9585
1518.0701	276.45764
1518.3201	270.39557
1518.5701	275.2486
1518.8201	277.3365
1519.0701	276.94077
1519.3201	277.24362
1519.5701	270.69818
1519.8201	270.34207
1520.0701	273.10233
1520.3201	272.78745
1520.5701	276.8006
1520.8201	252.90071
1521.0701	274.3365
1521.3201	275.26868
1521.5701	277.0996
1521.8201	262.1189
1522.0701	260.0519
1522.3201	276.5778
1522.5701	268.84436
1522.8201	274.71173
1523.0701	264.85287
1523.3201	273.43973
1523.5701	274.36786
1523.8201	275.17334
1524.0701	269.96585
1524.3201	265.99072
1524.5701	263.03867
1524.8201	276.1649
1525.0701	273.01364
1525.3201	273.49658
1525.5701	275.27872
1525.8201	272.98438
1526.0701	272.81873
1526.3201	262.4877
1526.5701	273.70673
1526.8201	273.54346
1527.0701	272.60995
1527.3201	274.44345
1527.5701	273.9814
1527.8201	273.0183
1528.0701	270.3777
1528.3201	271.76437
1528.5701	272.5086
1528.8201	272.36996
1529.0701	270.8344
1529.3201	247.82227
1529.5701	242.47012
1529.8201	269.2462
1530.0701	268.31842
1530.3201	272.21613
1530.5701	270.37985
1530.8201	270.61337
1531.0701	272.23193
1531.3201	272.01923
1531.5701	261.27728
1531.8201	269.3429
1532.0701	271.766
1532.3201	271.04663
1532.5701	271.31793
1532.8201	270.23087
1533.0701	269.30914
1533.3201	270.75928
1533.5701	249.3361
1533.8201	270.42432
1534.0701	269.52567
1534.3201	257.3192
1534.5701	270.22128
1534.8201	264.41898
1535.0701	267.02222
1535.3201	269.52448
1535.5701	270.7766
1535.8201	269.11472
1536.0701	265.63974
1536.3201	269.56476
1536.5701	270.73898
1536.8201	270.2992
1537.0701	269.3755
1537.3201	270.26724
1537.5701	245.41571
1537.8201	264.81464
1538.0701	266.90692
1538.3201	268.35675
1538.5701	262.81018
1538.8201	268.05414
1539.0701	268.08484
1539.3201	267.43405
1539.5701	239.51964
1539.8201	264.7405
1540.0701	260.4599
1540.3201	257.74756
1540.5701	267.64957
1540.8201	267.14383
1541.0701	267.21634
1541.3201	267.2268
1541.5701	265.21603
1541.8201	265.49838
1542.0701	260.71518
1542.3201	252.97485
1542.5701	266.59555
1542.8201	265.1686
1543.0701	266.47955
1543.3201	264.3906
1543.5701	264.9495
1543.8201	265.74725
1544.0701	266.16046
1544.3201	264.50964
1544.5701	265.04196
1544.8201	265.74127
1545.0701	261.92496
1545.3201	264.7671
1545.5701	265.6846
1545.8201	264.69055
1546.0701	265.1665
1546.3201	263.9517
1546.5701	261.65097
1546.8201	265.30765
1547.0701	257.7139
1547.3201	263.61252
1547.5701	258.82486
1547.8201	253.90338
1548.0701	261.63763
1548.3201	264.33582
1548.5701	261.00092
1548.8201	261.6956
1549.0701	262.39294
1549.3201	258.89798
1549.5701	257.65112
1549.8201	260.05145
1550.0701	252.31168
1550.3201	262.8223
1550.5701	262.53116
1550.8201	262.82956
1551.0701	260.5204
1551.3201	260.643
1551.5701	263.46658
1551.8201	258.93634
1552.0701	261.0656
1552.3201	259.35413
1552.5701	262.9449
1552.8201	261.48184
1553.0701	250.07393
1553.3201	250.39444
1553.5701	260.9351
1553.8201	254.5278
1554.0701	258.19446
1554.3201	248.61284
1554.5701	259.1399
1554.8201	260.31613
1555.0701	256.1157
1555.3201	257.8344
1555.5701	249.63707
1555.8201	243.10855
1556.0701	255.47922
1556.3201	257.9932
1556.5701	257.34677
1556.8201	258.50165
1557.0701	256.92828
1557.3201	258.71265
1557.5701	259.13947
1557.8201	259.37833
1558.0701	259.56747
1558.3201	259.06024
1558.5701	251.24445
1558.8201	249.41733
1559.0701	245.7432
1559.3201	252.28827
1559.5701	258.5881
1559.8201	256.21655
1560.0701	260.35294
1560.3201	257.2838
1560.5701	257.7524
1560.8201	259.31836
1561.0701	258.0316
1561.3201	258.58752
1561.5701	257.98944
1561.8201	256.26782
1562.0701	233.95563
1562.3201	257.05658
1562.5701	259.35272
1562.8201	258.36005
1563.0701	245.65952
1563.3201	244.83762
1563.5701	257.89972
1563.8201	254.99872
1564.0701	255.93228
1564.3201	257.49283
1564.5701	251.49878
1564.8201	249.59593
1565.0701	258.05246
1565.3201	249.9498
1565.5701	253.9797
1565.8201	255.56593
1566.0701	249.50136
1566.3201	244.42944
1566.5701	249.36465
1566.8201	257.1421
1567.0701	251.42204
1567.3201	243.2679
1567.5701	252.56178
1567.8201	248.63016
1568.0701	250.69794
1568.3201	250.36841
1568.5701	241.75891
1568.8201	252.96777
1569.0701	250.62717
1569.3201	227.40463
1569.5701	251.00262
1569.8201	251.48949
1570.0701	251.25107
1570.3201	250.2687
1570.5701	251.79568
1570.8201	251.199
1571.0701	251.93076
1571.3201	252.25722
1571.5701	251.26373
1571.8201	253.21051
1572.0701	253.31015
1572.3201	234.04237
1572.5701	252.30116
1572.8201	250.66087
1573.0701	250.50058
1573.3201	253.08038
1573.5701	252.92499
1573.8201	251.82999
1574.0701	205.89224
1574.3201	245.6214
1574.5701	246.92833
1574.8201	203.10112
1575.0701	240.03304
1575.3201	251.10176
1575.5701	252.63501
1575.8201	252.23776
1576.0701	248.67813
1576.3201	242.52754
1576.5701	185.47125
1576.8201	220.72488
1577.0701	231.93489
1577.3201	244.0553
1577.5701	252.34833
1577.8201	249.92952
1578.0701	252.47316
1578.3201	252.11494
1578.5701	248.25844
1578.8201	242.79172
1579.0701	248.2376
1579.3201	252.7352
1579.5701	252.55307
1579.8201	242.18488
1580.0701	248.45007
1580.3201	252.35992
1580.5701	248.16957
1580.8201	251.86815
1581.0701	248.75328
1581.3201	250.77896
1581.5701	245.22963
1581.8201	223.37538
1582.0701	245.35857
1582.3201	231.54222
1582.5701	250.99913
1582.8201	249.22412
1583.0701	249.57681
1583.3201	232.77032
1583.5701	238.54385
1583.8201	241.1677
1584.0701	249.23714
1584.3201	248.85925
1584.5701	246.79628
1584.8201	247.75403
1585.0701	246.13411
1585.3201	238.38075
1585.5701	247.09917
1585.8201	244.18901
1586.0701	241.40411
1586.3201	237.4179
1586.5701	244.31104
1586.8201	227.15105
1587.0701	243.67926
1587.3201	239.92082
1587.5701	242.39372
1587.8201	227.03505
1588.0701	232.53088
1588.3201	232.33478
1588.5701	224.73862
1588.8201	194.69049
1589.0701	229.41641
1589.3201	237.26257
1589.5701	227.9528
1589.8201	235.01743
1590.0701	237.77274
1590.3201	232.5981
1590.5701	224.25491
1590.8201	239.93904
1591.0701	231.19154
1591.3201	235.26335
1591.5701	245.10399
1591.8201	243.10448
1592.0701	237.61453
1592.3201	245.28214
1592.5701	246.26718
1592.8201	238.2012
1593.0701	241.32994
1593.3201	242.39053
1593.5701	245.96031
1593.8201	241.98386
1594.0701	237.65303
1594.3201	243.88766
1594.5701	245.70773
1594.8201	245.17166
1595.0701	245.0048
1595.3201	231.88211
1595.5701	232.84819
1595.8201	240.86932
1596.0701	213.21915
1596.3201	240.03046
1596.5701	231.02121
1596.8201	243.36418
1597.0701	240.27283
1597.3201	246.04509
1597.5701	245.48842
1597.8201	244.93376
1598.0701	227.09042
1598.3201	242.69467
1598.5701	245.68457
1598.8201	241.08807
1599.0701	243.30223
1599.3201	244.34055
1599.5701	244.12108
1599.8201	241.89264
1600.0701	244.16699
1600.3201	240.07108
1600.5701	220.05481
1600.8201	231.05295
1601.0701	234.47594
1601.3201	243.40599
1601.5701	237.6781
1601.8201	243.07669
1602.0701	231.92316
1602.3201	241.4914
1602.5701	242.3595
1602.8201	242.46399
1603.0701	242.27486
1603.3201	241.68585
1603.5701	240.24164
1603.8201	240.19438
1604.0701	219.85176
1604.3201	234.22594
1604.5701	239.89195
1604.8201	241.67105
1605.0701	234.03644
1605.3201	240.81483
1605.5701	240.64125
1605.8201	234.01376
1606.0701	219.48947
1606.3201	239.20921
1606.5701	239.4948
1606.8201	239.6225
1607.0701	229.09705
1607.3201	231.6883
1607.5701	237.18994
1607.8201	237.00894
1608.0701	237.5607
1608.3201	236.96078
1608.5701	236.66216
1608.8201	233.28246
1609.0701	231.76186
1609.3201	230.74713
1609.5701	210.86337
1609.8201	230.90948
1610.0701	228.12863
1610.3201	213.27237
1610.5701	228.70201
1610.8201	229.0231
1611.0701	228.83788
1611.3201	228.73207
1611.5701	223.75482
1611.8201	231.61526
1612.0701	232.42728
1612.3201	231.6351
1612.5701	223.23738
1612.8201	233.19681
1613.0701	234.12564
1613.3201	234.10942
1613.5701	221.79085
1613.8201	232.69727
1614.0701	235.41934
1614.3201	236.04811
1614.5701	236.25435
1614.8201	234.79773
1615.0701	219.2864
1615.3201	225.98863
1615.5701	219.76321
1615.8201	217.9739
1616.0701	236.88399
1616.3201	225.65366
1616.5701	220.98085
1616.8201	235.45457
1617.0701	235.62514
1617.3201	236.1857
1617.5701	232.0536
1617.8201	233.20222
1618.0701	224.22685
1618.3201	235.29468
1618.5701	222.44423
1618.8201	232.73354
1619.0701	235.76788
1619.3201	233.3797
1619.5701	222.18387
1619.8201	209.10138
1620.0701	232.87238
1620.3201	223.20311
1620.5701	234.56831
1620.8201	224.03047
1621.0701	235.59624
1621.3201	227.74185
1621.5701	222.21443
1621.8201	235.3755
1622.0701	235.41827
1622.3201	235.00027
1622.5701	226.76599
1622.8201	232.54251
1623.0701	227.61832
1623.3201	231.14394
1623.5701	222.49574
1623.8201	233.5035
1624.0701	222.45497
1624.3201	233.17976
1624.5701	231.15814
1624.8201	234.13438
1625.0701	233.91295
1625.3201	231.71658
1625.5701	233.77347
1625.8201	231.85457
1626.0701	232.06116
1626.3201	230.87515
1626.5701	233.16132
1626.8201	232.81717
1627.0701	231.9861
1627.3201	232.33575
1627.5701	231.57469
1627.8201	232.77371
1628.0701	231.1624
1628.3201	232.21434
1628.5701	229.91441
1628.8201	232.1869
1629.0701	230.78476
1629.3201	222.2953
1629.5701	230.06052
1629.8201	228.01804
1630.0701	229.30905
1630.3201	231.27277
1630.5701	232.05446
1630.8201	231.49393
1631.0701	222.80963
1631.3201	228.69415
1631.5701	214.46777
1631.8201	229.95161
1632.0701	230.8494
1632.3201	224.48615
1632.5701	225.73264
1632.8201	230.82335
1633.0701	224.12642
1633.3201	220.18628
1633.5701	224.05139
1633.8201	228.9739
1634.0701	228.96494
1634.3201	229.09148
1634.5701	224.67253
1634.8201	227.49419
1635.0701	228.31891
1635.3201	226.4058
1635.5701	227.39322
1635.8201	225.7698
1636.0701	226.85143
1636.3201	211.33426
1636.5701	206.9913
1636.8201	221.55865
1637.0701	224.6842
1637.3201	224.26897
1637.5701	223.09457
1637.8201	222.28015
1638.0701	182.32317
1638.3201	214.9555
1638.57	218.74625
1638.82	219.78288
1639.07	218.08228
1639.32	208.95479
1639.57	213.06343
1639.82	204.57507
1640.07	214.51642
1640.32	212.21114
1640.57	205.44539
1640.82	207.33041
1641.07	211.3841
1641.32	207.32088
1641.57	213.57767
1641.82	213.3771
1642.07	217.0944
1642.32	219.33928
1642.57	219.40254
1642.82	220.4326
1643.07	220.9793
1643.32	220.42778
1643.57	206.77263
1643.82	221.35104
1644.07	219.77094
1644.32	218.302
1644.57	202.97977
1644.82	221.50038
1645.07	221.56042
1645.32	221.1094
1645.57	218.22296
1645.82	223.56642
1646.07	222.65805
1646.32	222.18788
1646.57	216.86249
1646.82	219.9952
1647.07	217.59842
1647.32	216.80615
1647.57	221.85779
1647.82	222.48834
1648.07	219.84222
1648.32	221.58087
1648.57	201.78183
1648.82	219.60753
1649.07	220.32837
1649.32	218.50359
1649.57	220.91856
1649.82	222.14012
1650.07	222.6867
1650.32	222.12326
1650.57	213.27298
1650.82	222.55356
1651.07	222.39717
1651.32	222.04941
1651.57	221.54274
1651.82	219.81717
1652.07	219.5629
1652.32	213.4971
1652.57	216.99182
1652.82	221.82474
1653.07	221.59207
1653.32	220.6593
1653.57	217.4951
1653.82	210.73325
1654.07	218.36182
1654.32	213.85172
1654.57	216.99283
1654.82	216.21875
1655.07	213.96568
1655.32	217.78853
1655.57	216.92462
1655.82	219.7014
1656.07	202.63223
1656.32	218.37906
1656.57	220.14207
1656.82	219.06778
1657.07	212.45709
1657.32	219.96686
1657.57	217.98775
1657.82	217.4245
1658.07	215.39384
1658.32	219.0288
1658.57	212.01492
1658.82	213.76703
1659.07	216.36462
1659.32	216.01088
1659.57	217.52037
1659.82	217.55392
1660.07	218.23973
1660.32	219.04579
1660.57	217.42603
1660.82	217.2146
1661.07	216.84464
1661.32	212.66483
1661.57	217.46574
1661.82	217.5071
1662.07	210.05945
1662.32	216.75278
1662.57	213.91083
1662.82	217.25027
1663.07	211.94513
1663.32	206.6736
1663.57	214.17581
1663.82	216.28922
1664.07	211.55647
1664.32	215.90018
1664.57	204.53629
1664.82	208.51984
1665.07	212.24884
1665.32	204.64378
1665.57	215.48547
1665.82	215.24413
1666.07	212.28973
1666.32	213.83694
1666.57	205.13797
1666.82	214.84567
1667.07	212.84943
1667.32	205.61963
1667.57	214.72282
1667.82	211.3057
1668.07	196.0661
1668.32	214.16544
1668.57	211.31477
1668.82	214.43243
1669.07	214.49814
1669.32	212.75388
1669.57	213.60078
1669.82	213.59875
1670.07	213.58649
1670.32	212.99797
1670.57	212.33759
1670.82	207.31085
1671.07	211.60918
1671.32	211.34607
1671.57	211.58037
1671.82	184.9538
1672.07	207.16966
1672.32	210.41536
1672.57	206.6874
1672.82	210.62726
1673.07	211.09625
1673.32	211.54675
1673.57	210.95087
1673.82	208.06396
1674.07	210.029
1674.32	209.56139
1674.57	209.98056
1674.82	206.09789
1675.07	176.09836
1675.32	203.73685
1675.57	209.06508
1675.82	207.34375
1676.07	205.93788
1676.32	194.33153
1676.57	207.70964
1676.82	207.56131
1677.07	207.20018
1677.32	206.67188
1677.57	204.84117
1677.82	203.31323
1678.07	203.91019
1678.32	202.80615
1678.57	201.74509
1678.82	202.2279
1679.07	200.9903
1679.32	195.88625
1679.57	197.62015
1679.82	196.27661
1680.07	192.74829
1680.32	190.16168
1680.57	187.5067
1680.82	187.44383
1681.07	191.07138
1681.32	193.878
1681.57	193.6112
1681.82	189.24811
1682.07	197.26225
1682.32	189.69373
1682.57	200.89034
1682.82	195.49742
1683.07	202.40451
1683.32	200.68243
1683.57	202.48026
1683.82	202.68709
1684.07	203.73761
1684.32	201.73291
1684.57	203.4651
1684.82	204.66272
1685.07	204.37521
1685.32	204.22945
1685.57	201.77324
1685.82	194.22406
1686.07	204.33658
1686.32	203.80154
1686.57	202.92946
1686.82	200.23718
1687.07	201.95099
1687.32	202.68518
1687.57	202.35503
1687.82	203.32541
1688.07	202.91376
1688.32	204.27328
1688.57	204.08278
1688.82	202.84639
1689.07	180.45486
1689.32	202.07796
1689.57	203.27548
1689.82	204.42595
1690.07	203.16873
1690.32	189.54042
1690.57	202.87476
1690.82	204.47197
1691.07	204.1629
1691.32	204.12794
1691.57	203.76723
1691.82	204.25049
1692.07	204.25601
1692.32	203.86975
1692.57	203.5978
1692.82	199.29413
1693.07	203.53098
1693.32	202.80923
1693.57	203.38426
1693.82	203.59064
1694.07	203.59644
1694.32	203.53438
1694.57	202.72284
1694.82	202.36365
1695.07	202.77419
1695.32	202.00998
1695.57	202.29352
1695.82	199.05643
1696.07	202.41467
1696.32	202.39351
1696.57	199.15443
1696.82	201.44957
1697.07	192.27042
1697.32	201.20322
1697.57	199.25479
1697.82	201.25761
1698.07	199.066
1698.32	198.77531
1698.57	196.43503
1698.82	198.66104
1699.07	200.50867
1699.32	195.70686
1699.57	188.518
1699.82	200.2702
1700.07	193.62473
1700.32	200.2048
1700.57	185.80267
1700.82	193.05331
1701.07	189.53119
1701.32	197.97964
1701.57	199.74072
1701.82	198.20998
1702.07	194.1179
1702.32	199.41153
1702.57	198.03342
1702.82	197.84406
1703.07	199.08426
1703.32	195.76521
1703.57	198.90887
1703.82	198.84503
1704.07	199.18106
1704.32	198.47414
1704.57	199.23788
1704.82	195.89128
1705.07	198.84586
1705.32	198.05986
1705.57	198.7377
1705.82	196.51483
1706.07	198.7851
1706.32	196.5954
1706.57	188.69917
1706.82	197.65338
1707.07	196.49538
1707.32	195.59756
1707.57	196.99576
1707.82	195.98041
1708.07	197.44757
1708.32	197.31895
1708.57	190.1152
1708.82	196.51886
1709.07	188.9938
1709.32	194.73969
1709.57	196.67609
1709.82	195.09363
1710.07	196.22263
1710.32	194.84148
1710.57	189.80994
1710.82	143.75812
1711.07	182.04668
1711.32	192.3298
1711.57	195.5207
1711.82	193.14964
1712.07	192.94875
1712.32	196.18849
1712.57	193.97987
1712.82	195.98337
1713.07	193.09715
1713.32	194.31766
1713.57	195.5999
1713.82	192.79732
1714.07	195.21376
1714.32	195.65234
1714.57	195.56328
1714.82	194.4956
1715.07	193.16684
1715.32	193.93434
1715.57	194.49716
1715.82	194.34256
1716.07	181.7413
1716.32	194.3994
1716.57	194.2057
1716.82	193.07753
1717.07	193.8018
1717.32	193.87312
1717.57	192.73163
1717.82	193.1527
1718.07	193.35617
1718.32	191.91637
1718.57	193.67369
1718.82	191.49797
1719.07	193.17007
1719.32	190.79315
1719.57	191.58069
1719.82	191.74426
1720.07	191.91351
1720.32	186.3959
1720.57	186.33252
1720.82	191.52478
1721.07	192.64493
1721.32	192.07922
1721.57	189.77988
1721.82	189.74866
1722.07	191.21927
1722.32	190.58028
1722.57	167.29532
1722.82	190.01675
1723.07	187.11758
1723.32	182.5511
1723.57	186.5703
1723.82	190.16736
1724.07	187.0433
1724.32	189.7171
1724.57	189.38187
1724.82	190.16373
1725.07	188.50334
1725.32	184.88022
1725.57	189.81961
1725.82	189.24263
1726.07	190.175
1726.32	189.41663
1726.57	188.62024
1726.82	186.69641
1727.07	188.82933
1727.32	185.76437
1727.57	177.5037
1727.82	185.25806
1728.07	187.08737
1728.32	185.51126
1728.57	187.69379
1728.82	185.65277
1729.07	188.09055
1729.32	186.6826
1729.57	187.37125
1729.82	187.53221
1730.07	184.41571
1730.32	177.87292
1730.57	185.03671
1730.82	185.81001
1731.07	185.61105
1731.32	185.35587
1731.57	185.40306
1731.82	185.222
1732.07	184.42963
1732.32	174.36978
1732.57	173.66707
1732.82	158.83951
1733.07	178.98653
1733.32	181.04362
1733.57	180.22598
1733.82	157.98285
1734.07	178.46576
1734.32	178.75696
1734.57	177.68298
1734.82	176.28326
1735.07	173.93292
1735.32	172.67966
1735.57	169.63705
1735.82	166.08347
1736.07	160.88556
1736.32	160.76654
1736.57	165.65428
1736.82	169.77174
1737.07	172.26202
1737.32	172.78114
1737.57	174.51749
1737.82	176.81491
1738.07	176.50345
1738.32	178.2744
1738.57	176.60504
1738.82	179.22089
1739.07	178.0545
1739.32	175.27245
1739.57	180.51054
1739.82	181.20633
1740.07	178.36592
1740.32	180.34462
1740.57	178.37173
1740.82	161.28447
1741.07	179.18626
1741.32	182.0062
1741.57	180.81018
1741.82	179.25162
1742.07	180.72406
1742.32	180.53757
1742.57	181.10925
1742.82	175.48022
1743.07	181.9919
1743.32	181.15488
1743.57	181.11641
1743.82	182.61731
1744.07	182.67891
1744.32	182.69223
1744.57	182.15941
1744.82	168.88504
1745.07	179.2968
1745.32	180.5242
1745.57	170.63065
1745.82	179.74518
1746.07	181.34244
1746.32	182.12122
1746.57	167.65623
1746.82	169.33455
1747.07	178.08789
1747.32	181.9432
1747.57	176.60495
1747.82	181.47752
1748.07	181.5642
1748.32	181.32063
1748.57	181.01701
1748.82	181.6029
1749.07	181.23065
1749.32	180.4257
1749.57	179.84372
1749.82	181.09831
1750.07	175.94452
1750.32	179.75165
1750.57	165.68228
1750.82	179.09943
1751.07	179.863
1751.32	178.86008
1751.57	180.55472
1751.82	179.87872
1752.07	176.75818
1752.32	179.1503
1752.57	177.12247
1752.82	180.3169
1753.07	180.0924
1753.32	179.82574
1753.57	179.4682
1753.82	178.28278
1754.07	179.094
1754.32	179.54034
1754.57	172.15607
1754.82	178.46483
1755.07	176.98077
1755.32	175.95767
1755.57	176.3788
1755.82	178.40216
1756.07	178.58278
1756.32	177.65677
1756.57	174.8545
1756.82	179.07523
1757.07	178.08722
1757.32	178.81819
1757.57	177.70795
1757.82	178.42996
1758.07	176.79633
1758.32	177.56761
1758.57	174.1431
1758.82	177.9754
1759.07	178.30412
1759.32	177.63208
1759.57	177.99142
1759.82	174.91516
1760.07	176.63947
1760.32	175.74887
1760.57	167.5335
1760.82	174.70016
1761.07	174.90869
1761.32	175.74715
1761.57	166.37952
1761.82	167.02655
1762.07	176.23817
1762.32	168.01941
1762.57	176.10426
1762.82	176.8872
1763.07	176.9014
1763.32	175.67567
1763.57	174.79932
1763.82	162.32202
1764.07	168.05276
1764.32	170.23724
1764.57	174.35036
1764.82	176.31497
1765.07	176.3884
1765.32	175.71977
1765.57	173.48065
1765.82	173.82057
1766.07	175.45044
1766.32	167.44162
1766.57	175.57161
1766.82	175.55524
1767.07	172.53027
1767.32	168.863
1767.57	171.02531
1767.82	170.12819
1768.07	161.80414
1768.32	172.23236
1768.57	173.02673
1768.82	174.00229
1769.07	173.03056
1769.32	173.6789
1769.57	169.30878
1769.82	173.11293
1770.07	174.18617
1770.32	171.87735
1770.57	171.90045
1770.82	165.47849
1771.07	172.31387
1771.32	172.63855
1771.57	172.77406
1771.82	169.08627
1772.07	156.79147
1772.32	171.34476
1772.57	173.22374
1772.82	169.45944
1773.07	172.26607
1773.32	171.63531
1773.57	169.35966
1773.82	172.31581
1774.07	170.81525
1774.32	170.48111
1774.57	171.43211
1774.82	170.49893
1775.07	170.20157
1775.32	166.85641
1775.57	171.49313
1775.82	169.74997
1776.07	166.63756
1776.32	166.39107
1776.57	171.48627
1776.82	164.12848
1777.07	160.37842
1777.32	170.12006
1777.57	169.75609
1777.82	170.81047
1778.07	170.20978
1778.32	167.06291
1778.57	169.48047
1778.82	168.91539
1779.07	165.70404
1779.32	169.42917
1779.57	170.4851
1779.82	169.87318
1780.07	168.10455
1780.32	169.63472
1780.57	170.35646
1780.82	170.0806
1781.07	168.98141
1781.32	162.4549
1781.57	169.31952
1781.82	168.89798
1782.07	169.44879
1782.32	165.15688
1782.57	166.43492
1782.82	168.88303
1783.07	169.15842
1783.32	168.43839
1783.57	165.2896
1783.82	165.67221
1784.07	167.11671
1784.32	165.63031
1784.57	162.21147
1784.82	167.37076
1785.07	168.3893
1785.32	162.9151
1785.57	166.66418
1785.82	165.99991
1786.07	164.89287
1786.32	166.27713
1786.57	167.62704
1786.82	168.7735
1787.07	165.45807
1787.32	166.04767
1787.57	167.2999
1787.82	167.9619
1788.07	167.38474
1788.32	167.74
1788.57	167.98994
1788.82	167.61285
1789.07	166.46497
1789.32	166.84386
1789.57	167.69852
1789.82	167.08769
1790.07	167.45445
1790.32	166.74506
1790.57	167.1109
1790.82	165.7231
1791.07	165.5678
1791.32	166.98212
1791.57	165.55305
1791.82	164.66125
1792.07	166.66962
1792.32	164.8005
1792.57	165.47585
1792.82	165.0756
1793.07	156.17386
1793.32	163.17491
1793.57	163.27751
1793.82	156.3613
1794.07	162.63031
1794.32	166.19203
1794.57	165.90788
1794.82	165.60585
1795.07	164.88858
1795.32	165.65956
1795.57	164.10077
1795.82	165.13272
1796.07	165.28021
1796.32	164.9044
1796.57	161.7313
1796.82	163.94423
1797.07	162.78311
1797.32	164.55899
1797.57	164.5796
1797.82	164.42444
1798.07	162.07745
1798.32	161.85358
1798.57	163.56323
1798.82	163.94336
1799.07	163.93481
1799.32	162.47118
1799.57	162.93594
1799.82	163.3927
1800.07	161.52626
1800.32	161.47798
1800.57	159.86894
1800.82	163.5949
1801.07	163.17229
1801.32	162.86293
1801.57	160.98734
1801.82	162.85315
1802.07	157.29932
1802.32	160.61905
1802.57	161.87944
1802.82	158.71257
1803.07	154.45833
1803.32	161.86339
1803.57	161.3996
1803.82	161.28496
1804.07	162.69324
1804.32	160.6704
1804.57	162.38165
1804.82	162.03697
1805.07	157.84209
1805.32	158.21588
1805.57	161.58052
1805.82	162.00056
1806.07	158.85461
1806.32	159.00821
1806.57	159.37782
1806.82	159.49889
1807.07	161.134
1807.32	159.82271
1807.57	160.5873
1807.82	160.11629
1808.07	152.2771
1808.32	160.18808
1808.57	160.61081
1808.82	159.31648
1809.07	156.49329
1809.32	158.86472
1809.57	157.06609
1809.82	153.25932
1810.07	158.16681
1810.32	157.34712
1810.57	156.6435
1810.82	155.78214
1811.07	156.6911
1811.32	157.87494
1811.57	158.34561
1811.82	154.83778
1812.07	157.99481
1812.32	157.41023
1812.57	157.58112
1812.82	156.56526
1813.07	156.745
1813.32	156.97375
1813.57	156.53783
1813.82	153.7951
1814.07	154.05975
1814.32	153.78683
1814.57	154.5605
1814.82	153.54295
1815.07	153.20456
1815.32	147.24841
1815.57	143.75562
1815.82	147.89053
1816.07	148.55386
1816.32	147.07806
1816.57	145.03519
1816.82	141.58217
1817.07	136.54588
1817.32	130.30649
1817.57	133.23094
1817.82	139.01265
1818.07	141.52054
1818.32	145.66866
1818.57	147.47482
1818.82	148.33203
1819.07	148.05612
1819.32	150.91113
1819.57	151.17867
1819.82	151.91248
1820.07	151.95596
1820.32	152.91022
1820.57	153.2827
1820.82	153.74768
1821.07	153.96104
1821.32	153.96371
1821.57	153.65617
1821.82	154.2581
1822.07	142.85295
1822.32	146.7724
1822.57	153.10861
1822.82	153.26138
1823.07	152.10997
1823.32	154.9121
1823.57	155.30855
1823.82	153.97658
1824.07	155.47763
1824.32	152.63614
1824.57	155.49861
1824.82	153.41077
1825.07	153.92735
1825.32	155.48373
1825.57	155.46083
1825.82	154.39172
1826.07	155.39786
1826.32	154.63475
1826.57	155.21817
1826.82	155.14767
1827.07	154.30399
1827.32	153.68982
1827.57	153.25325
1827.82	155.1069
1828.07	154.46532
1828.32	147.21884
1828.57	149.41476
1828.82	154.51833
1829.07	154.40509
1829.32	154.44812
1829.57	152.58136
1829.82	152.94293
1830.07	152.26175
1830.32	153.33847
1830.57	153.91185
1830.82	154.21437
1831.07	154.1218
1831.32	154.1218
1831.57	151.27493
1831.82	153.47375
1832.07	143.11838
1832.32	153.45026
1832.57	153.50171
1832.82	154.0983
1833.07	153.43753
1833.32	153.91048
1833.57	153.62146
1833.82	151.68898
1834.07	150.72101
1834.32	152.94025
1834.57	152.21434
1834.82	152.86351
1835.07	151.41975
1835.32	150.75348
1835.57	151.59715
1835.82	151.24689
1836.07	150.02823
1836.32	152.59436
1836.57	148.39517
1836.82	150.49792
1837.07	151.71202
1837.32	140.88708
1837.57	143.43538
1837.82	150.56677
1838.07	151.04094
1838.32	152.32333
1838.57	151.95561
1838.82	150.17813
1839.07	151.81616
1839.32	148.50977
1839.57	147.6548
1839.82	148.63637
1840.07	151.56764
1840.32	151.62552
1840.57	148.89679
1840.82	150.07755
1841.07	150.86089
1841.32	144.54945
1841.57	145.19507
1841.82	146.15433
1842.07	149.15407
1842.32	133.75795
1842.57	150.3734
1842.82	147.42021
1843.07	147.12077
1843.32	148.28708
1843.57	150.28252
1843.82	149.0528
1844.07	149.10689
1844.32	147.57106
1844.57	146.17592
1844.82	147.33266
1845.07	150.2857
1845.32	149.90508
1845.57	150.02858
1845.82	149.48105
1846.07	149.56316
1846.32	146.57443
1846.57	123.32411
1846.82	147.86731
1847.07	145.47185
1847.32	144.59927
1847.57	149.3926
1847.82	147.51825
1848.07	149.22542
1848.32	149.09863
1848.57	148.88785
1848.82	148.60962
1849.07	147.36536
1849.32	148.48222
1849.57	146.1015
1849.82	148.63297
1850.07	148.53223
1850.32	148.3457
1850.57	148.64627
1850.82	147.58499
1851.07	147.37459
1851.32	148.17018
1851.57	147.2372
1851.82	145.24576
1852.07	143.94025
1852.32	145.55316
1852.57	139.31451
1852.82	146.50417
1853.07	146.56625
1853.32	147.5829
1853.57	147.2049
1853.82	147.06665
1854.07	147.4446
1854.32	146.53561
1854.57	146.87634
1854.82	142.44841
1855.07	146.83215
1855.32	131.79651
1855.57	139.27138
1855.82	145.3745
1856.07	146.52414
1856.32	146.79395
1856.57	146.73247
1856.82	146.60414
1857.07	146.70966
1857.32	146.45073
1857.57	140.87885
1857.82	145.94717
1858.07	142.07906
1858.32	139.96931
1858.57	144.14543
1858.82	146.23431
1859.07	146.24355
1859.32	145.5345
1859.57	142.87062
1859.82	145.64738
1860.07	145.19328
1860.32	145.38156
1860.57	145.17662
1860.82	143.65488
1861.07	142.0766
1861.32	144.62898
1861.57	144.12088
1861.82	144.8691
1862.07	142.91454
1862.32	142.10123
1862.57	142.25908
1862.82	142.52435
1863.07	144.19264
1863.32	143.97748
1863.57	144.36905
1863.82	140.26553
1864.07	143.92606
1864.32	144.51076
1864.57	144.38766
1864.82	143.30907
1865.07	143.65665
1865.32	139.16177
1865.57	142.82716
1865.82	136.39243
1866.07	142.57011
1866.32	139.26845
1866.57	142.95491
1866.82	143.08015
1867.07	142.97893
1867.32	142.53993
1867.57	139.05019
1867.82	142.45796
1868.07	140.23503
1868.32	141.52939
1868.57	142.2983
1868.82	141.69598
1869.07	141.87747
1869.32	140.92816
1869.57	139.59302
1869.82	141.49977
1870.07	140.6931
1870.32	140.1573
1870.57	140.83533
1870.82	140.27147
1871.07	139.70816
1871.32	135.95934
1871.57	139.336
1871.82	138.95067
1872.07	136.32428
1872.32	123.24284
1872.57	136.12279
1872.82	136.40768
1873.07	135.20229
1873.32	134.3955
1873.57	131.0176
1873.82	131.38217
1874.07	129.30254
1874.32	125.57076
1874.57	122.070175
1874.82	114.853806
1875.07	91.137985
1875.32	111.79505
1875.57	121.22676
1875.82	125.72104
1876.07	127.61352
1876.32	130.70963
1876.57	132.1925
1876.82	133.4273
1877.07	133.57047
1877.32	124.238525
1877.57	135.00656
1877.82	136.08873
1878.07	136.7357
1878.32	136.31662
1878.57	137.0465
1878.82	136.8051
1879.07	135.45076
1879.32	137.30376
1879.57	138.2273
1879.82	137.90712
1880.07	138.26944
1880.32	138.28346
1880.57	138.70755
1880.82	138.44225
1881.07	138.81442
1881.32	138.60246
1881.57	138.55887
1881.82	135.94006
1882.07	134.82794
1882.32	138.64865
1882.57	139.0811
1882.82	138.30193
1883.07	138.75667
1883.32	138.36119
1883.57	138.68307
1883.82	138.12405
1884.07	138.59753
1884.32	134.68886
1884.57	133.47754
1884.82	137.43773
1885.07	134.66127
1885.32	138.04391
1885.57	124.91972
1885.82	137.0695
1886.07	135.74736
1886.32	136.98715
1886.57	138.31256
1886.82	137.28957
1887.07	137.77545
1887.32	135.27246
1887.57	134.80074
1887.82	133.51515
1888.07	137.60281
1888.32	133.82658
1888.57	129.18764
1888.82	135.43864
1889.07	136.95743
1889.32	135.03252
1889.57	135.39381
1889.82	119.32408
1890.07	134.7724
1890.32	137.44824
1890.57	130.48128
1890.82	136.71613
1891.07	136.70355
1891.32	131.69638
1891.57	132.68604
1891.82	135.84221
1892.07	127.02972
1892.32	133.8645
1892.57	125.411064
1892.82	127.89605
1893.07	134.48224
1893.32	136.36249
1893.57	134.4409
1893.82	135.79669
1894.07	134.93443
1894.32	127.73569
1894.57	132.9434
1894.82	135.2174
1895.07	132.92569
1895.32	135.89876
1895.57	132.66283
1895.82	127.56863
1896.07	134.84732
1896.32	131.78276
1896.57	132.7142
1896.82	135.3896
1897.07	130.47015
1897.32	133.39824
1897.57	135.44435
1897.82	134.62843
1898.07	135.3763
1898.32	135.46793
1898.57	130.04587
1898.82	128.18286
1899.07	135.42676
1899.32	135.58238
1899.57	134.78882
1899.82	135.30154
1900.07	134.50082
1900.32	132.31857
1900.57	132.8639
1900.82	134.52586
1901.07	134.17052
1901.32	134.402
1901.57	134.7136
1901.82	134.17268
1902.07	133.87247
1902.32	134.43938
1902.57	134.54488
1902.82	133.66031
1903.07	123.77545
1903.32	134.13235
1903.57	133.77327
1903.82	134.2026
1904.07	133.7423
1904.32	131.87494
1904.57	128.0479
1904.82	133.62958
1905.07	132.32236
1905.32	133.69493
1905.57	133.82954
1905.82	132.2791
1906.07	132.77676
1906.32	133.65425
1906.57	133.48555
1906.82	133.61047
1907.07	132.85236
1907.32	133.0792
1907.57	132.95206
1907.82	130.76451
1908.07	129.9448
1908.32	129.94351
1908.57	132.16776
1908.82	133.0773
1909.07	132.95845
1909.32	132.91396
1909.57	131.99525
1909.82	132.95282
1910.07	132.3793
1910.32	130.37212
1910.57	132.2357
1910.82	132.48714
1911.07	131.45358
1911.32	121.758156
1911.57	131.61063
1911.82	132.35213
1912.07	126.75164
1912.32	129.79938
1912.57	132.01282
1912.82	131.45308
1913.07	131.19391
1913.32	131.42946
1913.57	131.79544
1913.82	131.12262
1914.07	127.47199
1914.32	131.09683
1914.57	131.59505
1914.82	130.47557
1915.07	131.46536
1915.32	129.317
1915.57	129.8903
1915.82	129.10966
1916.07	129.67139
1916.32	130.76491
1916.57	130.90639
1916.82	130.6586
1917.07	130.0021
1917.32	129.52026
1917.57	129.6282
1917.82	130.52098
1918.07	130.36807
1918.32	130.40695
1918.57	130.20352
1918.82	130.17657
1919.07	129.55298
1919.32	115.1479
1919.57	123.26831
1919.82	129.53566
1920.07	129.27385
1920.32	128.22464
1920.57	130.04767
1920.82	128.11589
1921.07	129.85846
1921.32	124.45091
1921.57	127.41563
1921.82	129.10455
1922.07	128.61845
1922.32	129.6221
1922.57	129.60364
1922.82	128.70634
1923.07	129.31981
1923.32	128.82506
1923.57	129.11003
1923.82	128.24484
1924.07	128.91705
1924.32	129.20389
1924.57	126.441956
1924.82	128.76169
1925.07	127.50337
1925.32	128.4103
1925.57	127.69105
1925.82	123.36192
1926.07	126.91474
1926.32	128.68651
1926.57	125.96295
1926.82	123.640945
1927.07	128.29141
1927.32	127.86627
1927.57	127.72366
1927.82	127.2552
1928.07	126.862
1928.32	118.34496
1928.57	126.24858
1928.82	127.98274
1929.07	127.779144
1929.32	127.709076
1929.57	127.77947
1929.82	126.82091
1930.07	127.29905
1930.32	125.601006
1930.57	126.21593
1930.82	115.91287
1931.07	124.79678
1931.32	127.23934
1931.57	126.77596
1931.82	126.453735
1932.07	126.38498
1932.32	127.082634
1932.57	126.380325
1932.82	126.873184
1933.07	126.734146
1933.32	125.202835
1933.57	123.007355
1933.82	126.00677
1934.07	117.319405
1934.32	126.09279
1934.57	125.440674
1934.82	126.11949
1935.07	125.61347
1935.32	125.683174
1935.57	125.44097
1935.82	126.076805
1936.07	125.896484
1936.32	125.318436
1936.57	125.07625
1936.82	125.43217
1937.07	125.48039
1937.32	125.295265
1937.57	124.97481
1937.82	123.842834
1938.07	124.967766
1938.32	124.68269
1938.57	115.309586
1938.82	124.159935
1939.07	124.13966
1939.32	119.9619
1939.57	123.36215
1939.82	123.44623
1940.07	123.25447
1940.32	119.09044
1940.57	122.900375
1940.82	122.22675
1941.07	120.421555
1941.32	121.69395
1941.57	121.178276
1941.82	120.88704
1942.07	120.327675
1942.32	119.54561
1942.57	113.87905
1942.82	118.08201
1943.07	113.79636
1943.32	105.75028
1943.57	114.155396
1943.82	112.46261
1944.07	109.37077
1944.32	103.879364
1944.57	98.51137
1944.82	105.60325
1945.07	109.646034
1945.32	101.0434
1945.57	114.44507
1945.82	115.7196
1946.07	116.71345
1946.32	116.055466
1946.57	118.32994
1946.82	118.39496
1947.07	114.69827
1947.32	119.791
1947.57	119.48987
1947.82	120.36415
1948.07	119.84804
1948.32	116.53596
1948.57	119.35054
1948.82	121.24237
1949.07	118.68146
1949.32	110.1573
1949.57	121.274185
1949.82	121.48978
1950.07	121.50008
1950.32	121.43904
1950.57	103.53757
1950.82	108.85385
1951.07	120.505554
1951.32	121.84625
1951.57	121.64166
1951.82	121.94539
1952.07	121.96453
1952.32	121.84823
1952.57	122.07204
1952.82	121.95619
1953.07	121.65355
1953.32	118.23656
1953.57	121.67404
1953.82	121.63535
1954.07	116.017525
1954.32	121.11449
1954.57	121.81202
1954.82	121.27498
1955.07	121.71565
1955.32	121.61397
1955.57	121.381065
1955.82	121.66846
1956.07	121.42119
1956.32	121.26051
1956.57	121.32317
1956.82	120.6559
1957.07	121.31122
1957.32	120.65924
1957.57	121.196655
1957.82	120.61692
1958.07	119.89808
1958.32	117.86499
1958.57	120.41577
1958.82	119.178116
1959.07	120.14079
1959.32	118.24528
1959.57	120.082855
1959.82	116.17656
1960.07	119.957855
1960.32	120.26977
1960.57	120.64704
1960.82	120.43278
1961.07	120.2872
1961.32	112.89048
1961.57	118.68763
1961.82	120.45376
1962.07	120.3533
1962.32	118.6082
1962.57	109.759285
1962.82	119.61544
1963.07	117.56125
1963.32	119.4297
1963.57	115.38982
1963.82	118.20245
1964.07	119.30936
1964.32	119.87952
1964.57	119.92247
1964.82	119.81568
1965.07	119.72414
1965.32	119.806244
1965.57	119.78015
1965.82	119.19712
1966.07	119.473946
1966.32	119.55313
1966.57	119.29671
1966.82	119.22847
1967.07	119.12442
1967.32	119.30366
1967.57	118.25145
1967.82	119.277336
1968.07	119.01027
1968.32	118.91953
1968.57	117.980156
1968.82	118.52423
1969.07	118.76937
1969.32	118.91469
1969.57	118.48511
1969.82	118.7019
1970.07	118.58098
1970.32	118.474045
1970.57	118.54081
1970.82	118.377945
1971.07	117.83261
1971.32	118.03891
1971.57	118.15476
1971.82	115.474205
1972.07	114.01916
1972.32	99.277916
1972.57	117.469284
1972.82	117.693344
1973.07	117.796234
1973.32	109.682434
1973.57	116.35316
1973.82	117.077286
1974.07	117.65451
1974.32	117.355125
1974.57	117.33266
1974.82	117.517845
1975.07	116.806564
1975.32	117.244446
1975.57	117.50657
1975.82	117.38042
1976.07	116.17333
1976.32	116.84561
1976.57	117.30806
1976.82	117.114624
1977.07	117.02961
1977.32	116.98952
1977.57	102.98061
1977.82	108.9869
1978.07	116.30921
1978.32	116.79654
1978.57	115.855896
1978.82	116.544945
1979.07	111.46675
1979.32	114.679405
1979.57	116.370964
1979.82	116.439354
1980.07	116.27377
1980.32	116.366356
1980.57	116.12204
1980.82	116.39647
1981.07	116.330864
1981.32	115.97436
1981.57	113.53672
1981.82	115.93817
1982.07	115.999565
1982.32	116.176315
1982.57	115.94834
1982.82	115.96811
1983.07	115.960075
1983.32	115.6129
1983.57	115.96803
1983.82	115.850494
1984.07	115.72255
1984.32	115.72505
1984.57	109.530396
1984.82	114.7
1985.07	115.20005
1985.32	103.874146
1985.57	110.44269
1985.82	115.06123
1986.07	113.81374
1986.32	105.31662
1986.57	114.89752
1986.82	114.95741
1987.07	114.69449
1987.32	114.04451
1987.57	113.751816
1987.82	115.05919
1988.07	113.49168
1988.32	114.77855
1988.57	114.820335
1988.82	114.80966
1989.07	114.69947
1989.32	114.33139
1989.57	114.60271
1989.82	114.63582
1990.07	114.43097
1990.32	113.83386
1990.57	113.78923
1990.82	113.78135
1991.07	114.09985
1991.32	113.70003
1991.57	113.63086
1991.82	110.83927
1992.07	113.993996
1992.32	112.53709
1992.57	113.6633
1992.82	106.06495
1993.07	113.551605
1993.32	104.375374
1993.57	113.33672
1993.82	113.56935
1994.07	113.29111
1994.32	113.04866
1994.57	113.301575
1994.82	112.08772
1995.07	112.73179
1995.32	113.16939
1995.57	112.93816
1995.82	113.243675
1996.07	108.44441
1996.32	111.12435
1996.57	112.05036
1996.82	112.78891
1997.07	106.77516
1997.32	106.37117
1997.57	111.33362
1997.82	112.330055
1998.07	112.34969
1998.32	112.69072
1998.57	112.88314
1998.82	112.64958
1999.07	112.453835
1999.32	112.2683
1999.57	112.44635
1999.82	112.42967
2000.07	112.0937
2000.32	112.2711
2000.57	112.33789
2000.82	110.73574
2001.07	112.019844
2001.32	111.97177
2001.57	112.19056
2001.82	112.07943
2002.07	111.25938
2002.32	105.699585
2002.57	110.999954
2002.82	111.50366
2003.07	111.098114
2003.32	111.30172
2003.57	107.64675
2003.82	110.44882
2004.07	111.34573
2004.32	110.901764
2004.57	111.3853
2004.82	111.432526
2005.07	104.47943
2005.32	107.98389
2005.57	109.57088
2005.82	111.11841
2006.07	110.94704
2006.32	111.144806
2006.57	110.87962
2006.82	110.15524
2007.07	107.44771
2007.32	110.977295
2007.57	110.96317
2007.82	110.64221
2008.07	109.44167
2008.32	110.1272
2008.57	110.35075
2008.82	110.27156
2009.07	109.08966
2009.32	107.73085
2009.57	109.59637
2009.82	110.16591
2010.07	110.44884
2010.32	110.222336
2010.57	109.876625
2010.82	109.694916
2011.07	109.901794
2011.32	109.8138
2011.57	109.9684
2011.82	109.95022
2012.07	109.89091
2012.32	109.68235
2012.57	108.73779
2012.82	108.982994
2013.07	109.66557
2013.32	109.52196
2013.57	106.11225
2013.82	107.93492
2014.07	109.17762
2014.32	108.371895
2014.57	109.15588
2014.82	109.03943
2015.07	108.45035
2015.32	109.39726
2015.57	109.111404
2015.82	109.16112
2016.07	109.167435
2016.32	108.93661
2016.57	108.815445
2016.82	108.677376
2017.07	108.559525
2017.32	108.10243
2017.57	108.85812
2017.82	108.686264
2018.07	108.72443
2018.32	108.61831
2018.57	108.189476
2018.82	106.34403
2019.07	108.559845
2019.32	108.02987
2019.57	108.10611
2019.82	106.923965
2020.07	108.18233
2020.32	106.678116
2020.57	101.375465
2020.82	102.81638
2021.07	107.294685
2021.32	107.65073
2021.57	107.752144
2021.82	107.64449
2022.07	107.540825
2022.32	107.27397
2022.57	107.65949
2022.82	106.41151
2023.07	104.302055
2023.32	106.668304
2023.57	107.648834
2023.82	106.965775
2024.07	103.09277
2024.32	107.06575
2024.57	107.303894
2024.82	107.13637
2025.07	106.81324
2025.32	107.34384
2025.57	106.93498
2025.82	107.257835
2026.07	107.24922
2026.32	101.8224
2026.57	106.930275
2026.82	104.81498
2027.07	106.86899
2027.32	105.920906
2027.57	106.015564
2027.82	106.84643
2028.07	104.090034
2028.32	105.9648
2028.57	106.61249
2028.82	106.005005
2029.07	105.47981
2029.32	105.27152
2029.57	98.52344
2029.82	105.562515
2030.07	98.9874
2030.32	103.972534
2030.57	106.06288
2030.82	106.34851
2031.07	106.09097
2031.32	106.035835
2031.57	105.81867
2031.82	105.8687
2032.07	105.83713
2032.32	105.73648
2032.57	105.55877
2032.82	104.929855
2033.07	105.48824
2033.32	105.49775
2033.57	105.54345
2033.82	104.81582
2034.07	104.0635
2034.32	97.79786
2034.57	101.578
2034.82	105.40486
2035.07	102.65912
2035.32	105.10884
2035.57	105.21524
2035.82	105.39692
2036.07	104.80427
2036.32	103.31491
2036.57	104.72171
2036.82	104.70733
2037.07	104.87847
2037.32	102.94281
2037.57	101.388084
2037.82	96.8103
2038.07	103.34373
2038.32	100.83351
2038.57	104.272644
2038.82	104.41214
2039.07	104.69848
2039.32	104.81552
2039.57	104.09239
2039.82	104.44479
2040.07	104.18437
2040.32	101.35628
2040.57	103.24495
2040.82	104.011826
2041.07	100.129974
2041.32	101.88058
2041.57	102.48864
2041.82	103.732834
2042.07	103.613045
2042.32	103.32244
2042.57	103.79115
2042.82	103.93895
2043.07	103.42422
2043.32	104.088066
2043.57	103.969795
2043.82	103.808586
2044.07	103.72451
2044.32	103.648
2044.57	102.880104
2044.82	103.19531
2045.07	102.92049
2045.32	103.113785
2045.57	103.33325
2045.82	103.466576
2046.07	103.39287
2046.32	103.23959
2046.57	103.407684
2046.82	101.81818
2047.07	103.26531
2047.32	102.043015
2047.57	102.646286
2047.82	102.98633
2048.07	102.86359
2048.32	103.20528
2048.57	102.91421
2048.82	103.00269
2049.07	102.72408
2049.32	102.74697
2049.57	102.74596
2049.82	102.6585
2050.07	102.68819
2050.32	102.69242
2050.57	102.559845
2050.82	102.41315
2051.07	101.35835
2051.32	102.53427
2051.57	101.91418
2051.82	101.515076
2052.07	96.35872
2052.32	99.828354
2052.57	101.93053
2052.82	102.01488
2053.07	101.618416
2053.32	102.02126
2053.57	101.878975
2053.82	99.02109
2054.07	101.752556
2054.32	101.71811
2054.57	101.65343
2054.82	101.86789
2055.07	101.77951
2055.32	100.82134
2055.57	101.68846
2055.82	101.37126
2056.07	101.62121
2056.32	101.37648
2056.57	101.19565
2056.82	100.555435
2057.07	101.382706
2057.32	101.18575
2057.57	101.1801
2057.82	101.23298
2058.07	101.27347
2058.32	100.48987
2058.57	96.648895
2058.82	100.87434
2059.07	101.12754
2059.32	99.99693
2059.57	100.13192
2059.82	98.33644
2060.07	98.26172
2060.32	90.191895
2060.57	99.96144
2060.82	100.556046
2061.07	100.42601
2061.32	100.64629
2061.57	98.86838
2061.82	100.415405
2062.07	100.31394
2062.32	100.30946
2062.57	100.0844
2062.82	97.79083
2063.07	80.72073
2063.32	89.241974
2063.57	99.36362
2063.82	100.042274
2064.07	100.007996
2064.32	99.136284
2064.57	99.778305
2064.82	99.78944
2065.07	99.73084
2065.32	99.95278
2065.57	99.95477
2065.82	99.587105
2066.07	99.536316
2066.32	99.55606
2066.57	97.744026
2066.82	97.616646
2067.07	95.081566
2067.32	95.37337
2067.57	97.56311
2067.82	97.814285
2068.07	98.57988
2068.32	99.316956
2068.57	99.36965
2068.82	98.857544
2069.07	98.881386
2069.32	98.067024
2069.57	98.79955
2069.82	88.19336
2070.07	98.05283
2070.32	98.42224
2070.57	98.560265
2070.82	96.55872
2071.07	98.5136
2071.32	97.73735
2071.57	96.065025
2071.82	97.21447
2072.07	98.47548
2072.32	97.87612
2072.57	98.70762
2072.82	98.750755
2073.07	97.80707
2073.32	97.478745
2073.57	96.24751
2073.82	97.68769
2074.07	98.15152
2074.32	98.02296
2074.57	98.168945
2074.82	97.92734
2075.07	97.15727
2075.32	98.23517
2075.57	96.517555
2075.82	96.5103
2076.07	97.70225
2076.32	94.47273
2076.57	96.41377
2076.82	93.06328
2077.07	93.133484
2077.32	96.78829
2077.57	96.855774
2077.82	97.48584
2078.07	97.615845
2078.32	97.521935
2078.57	97.58289
2078.82	97.405785
2079.07	97.51855
2079.32	97.25112
2079.57	97.21572
2079.82	96.421974
2080.07	95.32718
2080.32	95.441216
2080.57	97.170784
2080.82	97.27578
2081.07	96.9577
2081.32	96.581116
2081.57	97.125694
2081.82	96.54052
2082.07	96.0499
2082.32	96.24908
2082.57	96.4983
2082.82	92.3886
2083.07	96.09882
2083.32	91.478966
2083.57	95.88663
2083.82	96.199425
2084.07	90.77147
2084.32	95.52695
2084.57	95.11878
2084.82	96.329765
2085.07	95.61728
2085.32	96.5131
2085.57	95.972946
2085.82	96.27443
2086.07	95.45002
2086.32	96.33125
2086.57	95.79843
2086.82	95.025826
2087.07	95.68393
2087.32	96.03313
2087.57	95.329666
2087.82	94.377335
2088.07	95.53051
2088.32	95.37182
2088.57	95.39084
2088.82	95.97621
2089.07	93.4453
2089.32	94.66231
2089.57	95.581825
2089.82	95.74607
2090.07	95.50172
2090.32	95.57633
2090.57	95.03931
2090.82	95.39212
2091.07	95.48384
2091.32	95.142944
2091.57	90.51968
2091.82	85.3176
2092.07	95.08714
2092.32	95.35552
2092.57	92.84682
2092.82	95.14233
2093.07	95.12135
2093.32	94.37909
2093.57	95.16507
2093.82	94.28444
2094.07	95.14611
2094.32	95.036835
2094.57	94.84433
2094.82	94.264755
2095.07	94.56531
2095.32	94.88368
2095.57	94.04997
2095.82	94.37134
2096.07	94.46069
2096.32	91.781395
2096.57	94.634285
2096.82	94.687386
2097.07	94.4757
2097.32	91.90799
2097.57	94.55113
2097.82	94.407616
2098.07	94.03167
2098.32	93.89798
2098.57	92.564606
2098.82	93.348816
2099.07	92.33974
2099.32	93.933495
2099.57	94.057076
2099.82	94.13298
2100.07	94.157394
2100.32	93.95143
2100.57	91.03169
2100.82	93.784164
2101.07	93.16449
2101.32	93.04199
2101.57	93.57841
2101.82	92.53943
2102.07	93.6595
2102.32	89.38847
2102.57	93.4315
2102.82	93.655174
2103.07	93.47209
2103.32	93.63725
2103.57	93.629196
2103.82	93.52714
2104.07	93.439026
2104.32	93.325455
2104.57	93.26807
2104.82	93.3058
2105.07	93.28925
2105.32	93.17303
2105.57	92.871475
2105.82	92.39957
2106.07	91.24664
2106.32	92.78952
2106.57	92.38074
2106.82	92.09213
2107.07	92.08935
2107.32	90.79326
2107.57	92.00974
2107.82	92.59543
2108.07	92.43634
2108.32	92.541306
2108.57	91.950615
2108.82	92.510765
2109.07	92.48372
2109.32	84.99414
2109.57	91.34154
2109.82	92.46993
2110.07	92.52127
2110.32	92.283035
2110.57	90.97266
2110.82	92.363655
2111.07	92.007904
2111.32	91.40847
2111.57	92.202255
2111.82	92.05411
2112.07	92.12556
2112.32	90.84815
2112.57	91.40204
2112.82	91.63898
2113.07	91.87433
2113.32	91.81279
2113.57	91.49881
2113.82	89.13846
2114.07	90.84999
2114.32	91.77199
2114.57	91.73095
2114.82	91.32483
2115.07	91.50743
2115.32	91.48421
2115.57	89.48745
2115.82	91.3353
2116.07	91.091774
2116.32	81.38706
2116.57	90.19576
2116.82	90.95895
2117.07	91.10536
2117.32	90.79245
2117.57	90.149994
2117.82	90.62558
2118.07	91.03959
2118.32	90.800545
2118.57	88.60002
2118.82	86.17705
2119.07	85.55717
2119.32	88.154236
2119.57	89.45916
2119.82	89.12355
2120.07	90.46501
2120.32	90.63133
2120.57	90.75677
2120.82	90.25422
2121.07	87.62985
2121.32	88.75372
2121.57	89.85699
2121.82	89.49665
2122.07	90.10103
2122.32	88.780396
2122.57	87.67027
2122.82	89.77698
2123.07	85.50956
2123.32	85.00244
2123.57	88.97064
2123.82	88.23703
2124.07	89.93137
2124.32	89.72416
2124.57	89.730804
2124.82	89.99176
2125.07	90.02426
2125.32	89.699265
2125.57	89.93527
2125.82	87.91516
2126.07	84.09578
2126.32	89.69478
2126.57	89.670105
2126.82	89.66918
2127.07	89.63631
2127.32	89.63387
2127.57	87.37962
2127.82	87.605736
2128.07	89.45891
2128.32	89.40175
2128.57	89.41342
2128.82	88.9823
2129.07	89.33113
2129.32	89.262856
2129.57	86.37865
2129.82	89.01192
2130.07	89.33495
2130.32	89.13492
2130.57	88.91769
2130.82	88.99471
2131.07	89.26731
2131.32	89.12776
2131.57	88.91736
2131.82	88.79379
2132.07	86.99391
2132.32	88.80314
2132.57	88.82495
2132.82	88.939354
2133.07	88.78229
2133.32	88.66273
2133.57	88.08792
2133.82	88.55002
2134.07	88.421135
2134.32	88.507645
2134.57	88.57098
2134.82	88.51567
2135.07	88.33141
2135.32	79.95912
2135.57	86.07547
2135.82	88.41712
2136.07	88.45218
2136.32	88.246605
2136.57	88.22396
2136.82	87.96814
2137.07	88.20957
2137.32	87.97524
2137.57	88.0315
2137.82	88.092285
2138.07	87.81524
2138.32	87.93367
2138.57	87.695816
2138.82	86.02182
2139.07	87.96081
2139.32	87.691956
2139.57	87.64313
2139.82	87.740974
2140.07	87.71556
2140.32	87.4416
2140.57	87.56675
2140.82	87.57861
2141.07	87.37228
2141.32	87.60823
2141.57	87.57667
2141.82	87.425575
2142.07	87.53586
2142.32	87.42092
2142.57	87.31204
2142.82	83.98387
2143.07	87.220245
2143.32	87.023155
2143.57	87.055756
2143.82	86.74051
2144.07	85.64812
2144.32	86.70014
2144.57	87.02136
2144.82	87.02416
2145.07	86.261635
2145.32	85.36841
2145.57	86.4228
2145.82	84.467476
2146.07	86.28302
2146.32	86.79531
2146.57	86.595215
2146.82	86.72871
2147.07	86.50006
2147.32	86.4684
2147.57	86.539474
2147.82	86.66996
2148.07	86.15524
2148.32	86.23473
2148.57	86.26793
2148.82	86.21827
2149.07	85.247665
2149.32	86.34335
2149.57	86.25137
2149.82	85.75165
2150.07	86.27738
2150.32	86.21846
2150.57	85.96507
2150.82	86.04387
2151.07	86.00174
2151.32	85.96665
2151.57	85.488785
2151.82	85.910385
2152.07	85.604965
2152.32	83.7693
2152.57	85.5482
2152.82	85.36038
2153.07	85.318436
2153.32	84.58916
2153.57	84.66991
2153.82	85.08023
2154.07	85.1612
2154.32	85.15519
2154.57	84.69239
2154.82	85.282814
2155.07	85.10004
2155.32	84.94632
2155.57	85.29141
2155.82	85.10086
2156.07	85.085526
2156.32	84.68692
2156.57	84.731255
2156.82	84.73206
2157.07	84.57024
2157.32	84.696075
2157.57	84.70008
2157.82	84.584045
2158.07	84.604866
2158.32	84.41614
2158.57	83.36047
2158.82	84.161255
2159.07	84.14099
2159.32	83.50653
2159.57	83.83856
2159.82	83.78326
2160.07	83.73035
2160.32	83.72653
2160.57	83.563194
2160.82	83.35107
2161.07	82.819824
2161.32	81.39926
2161.57	82.42763
2161.82	82.33481
2162.07	82.57209
2162.32	82.29495
2162.57	81.829
2162.82	81.70635
2163.07	81.4803
2163.32	81.060104
2163.57	80.585785
2163.82	80.05951
2164.07	79.29066
2164.32	77.72338
2164.57	77.467255
2164.82	75.96591
2165.07	73.902405
2165.32	69.72012
2165.57	66.01957
2165.82	71.90556
2166.07	74.97353
2166.32	76.645775
2166.57	77.62107
2166.82	78.62276
2167.07	78.99146
2167.32	78.11832
2167.57	78.91334
2167.82	80.3551
2168.07	80.91716
2168.32	80.666794
2168.57	81.13681
2168.82	80.59062
2169.07	80.21018
2169.32	81.15427
2169.57	81.787254
2169.82	80.839165
2170.07	81.669815
2170.32	81.9794
2170.57	82.11569
2170.82	82.13828
2171.07	82.24173
2171.32	80.53794
2171.57	81.91433
2171.82	82.15267
2172.07	82.52084
2172.32	82.29578
2172.57	82.30034
2172.82	82.102295
2173.07	82.4405
2173.32	82.41522
2173.57	81.27796
2173.82	81.90138
2174.07	81.4276
2174.32	81.75983
2174.57	81.53472
2174.82	81.7437
2175.07	81.908676
2175.32	81.721275
2175.57	81.41409
2175.82	81.62938
2176.07	78.470345
2176.32	81.564316
2176.57	81.60173
2176.82	81.91661
2177.07	82.19738
2177.32	82.11404
2177.57	81.44983
2177.82	77.327415
2178.07	74.3303
2178.32	80.637596
2178.57	81.8882
2178.82	80.49344
2179.07	81.86248
2179.32	81.7198
2179.57	81.87919
2179.82	82.01859
2180.07	81.97679
2180.32	81.871765
2180.57	81.776665
2180.82	81.817444
2181.07	81.811874
2181.32	81.51193
2181.57	81.490776
2181.82	79.41399
2182.07	75.12281
2182.32	80.56805
2182.57	81.23745
2182.82	81.62363
2183.07	81.51672
2183.32	81.02643
2183.57	81.451195
2183.82	80.95294
2184.07	81.22223
2184.32	81.47369
2184.57	81.18466
2184.82	81.29381
2185.07	81.10547
2185.32	81.125275
2185.57	81.23176
2185.82	80.68779
2186.07	81.02231
2186.32	81.05643
2186.57	80.82158
2186.82	81.0503
2187.07	80.997284
2187.32	77.68908
2187.57	80.19998
2187.82	73.832985
2188.07	76.62063
2188.32	80.671684
2188.57	80.86026
2188.82	80.73782
2189.07	80.69923
2189.32	80.56673
2189.57	77.7872
2189.82	79.83059
2190.07	80.36353
2190.32	80.04085
2190.57	80.54042
2190.82	80.13208
2191.07	80.009125
2191.32	80.34352
2191.57	80.30204
2191.82	80.47477
2192.07	80.469345
2192.32	80.42298
2192.57	79.94781
2192.82	80.32551
2193.07	80.181015
2193.32	79.72462
2193.57	80.13104
2193.82	79.83858
2194.07	79.927765
2194.32	77.64493
2194.57	79.953896
2194.82	79.84186
2195.07	79.85474
2195.32	79.8877
2195.57	79.60507
2195.82	79.9386
2196.07	79.87155
2196.32	79.572395
2196.57	79.37558
2196.82	79.65133
2197.07	79.67218
2197.32	79.47827
2197.57	79.47257
2197.82	79.63763
2198.07	79.38288
2198.32	79.39432
2198.57	79.47801
2198.82	79.41168
2199.07	79.5397
2199.32	78.58273
2199.57	78.40202
2199.82	79.02516
2200.07	79.27974
2200.32	79.20684
2200.57	78.85627
2200.82	79.12262
2201.07	78.77502
2201.32	78.7609
2201.57	78.838974
2201.82	78.95594
2202.07	78.74077
2202.32	78.85147
2202.57	78.77308
2202.82	78.72726
2203.07	78.872086
2203.32	76.94715
2203.57	78.83945
2203.82	78.8601
2204.07	76.17269
2204.32	78.46282
2204.57	78.57141
2204.82	78.40789
2205.07	78.373
2205.32	78.08091
2205.57	69.86192
2205.82	77.279274
2206.07	76.657265
2206.32	67.757225
2206.57	77.68405
2206.82	78.31929
2207.07	78.30493
2207.32	75.98671
2207.57	78.27067
2207.82	78.28724
2208.07	77.807076
2208.32	71.2415
2208.57	77.81473
2208.82	78.02262
2209.07	77.982475
2209.32	78.149345
2209.57	77.82906
2209.82	77.75613
2210.07	77.62813
2210.32	77.66943
2210.57	76.93785
2210.82	77.70234
2211.07	77.108826
2211.32	77.185165
2211.57	77.69775
2211.82	76.92119
2212.07	77.79727
2212.32	77.80567
2212.57	77.600395
2212.82	77.64639
2213.07	77.74542
2213.32	77.50773
2213.57	77.55832
2213.82	77.60743
2214.07	77.44552
2214.32	77.19924
2214.57	77.30552
2214.82	77.3384
2215.07	77.13468
2215.32	77.38991
2215.57	75.61141
2215.82	77.218254
2216.07	73.69871
2216.32	77.10889
2216.57	74.837906
2216.82	76.094696
2217.07	76.95596
2217.32	77.02418
2217.57	77.02193
2217.82	76.29961
2218.07	77.01249
2218.32	76.949524
2218.57	77.02272
2218.82	76.91387
2219.07	76.90476
2219.32	76.80512
2219.57	76.69307
2219.82	76.42885
2220.07	76.710846
2220.32	76.69907
2220.57	76.67272
2220.82	76.46667
2221.07	76.24543
2221.32	76.619705
2221.57	76.515175
2221.82	76.423416
2222.07	76.53982
2222.32	76.54754
2222.57	76.30536
2222.82	76.198135
2223.07	76.39298
2223.32	75.91501
2223.57	76.30963
2223.82	76.281906
2224.07	76.00471
2224.32	75.7088
2224.57	76.09696
2224.82	76.19453
2225.07	76.16423
2225.32	75.82212
2225.57	75.56669
2225.82	73.0412
2226.07	73.32682
2226.32	75.95797
2226.57	75.966095
2226.82	75.75675
2227.07	75.90216
2227.32	75.26366
2227.57	75.76656
2227.82	73.46761
2228.07	75.57958
2228.32	75.75304
2228.57	75.67338
2228.82	75.60823
2229.07	75.64035
2229.32	75.510925
2229.57	75.52779
2229.82	74.00306
2230.07	75.32902
2230.32	75.31001
2230.57	75.42644
2230.82	74.81455
2231.07	75.22426
2231.32	75.35473
2231.57	75.27074
2231.82	75.27817
2232.07	74.693275
2232.32	75.05605
2232.57	75.24026
2232.82	75.0437
2233.07	75.081184
2233.32	75.13298
2233.57	74.50242
2233.82	75.05436
2234.07	74.87885
2234.32	74.78494
2234.57	74.621376
2234.82	74.86163
2235.07	74.9004
2235.32	74.787766
2235.57	74.7711
2235.82	74.76433
2236.07	74.76763
2236.32	74.77807
2236.57	74.63898
2236.82	74.57381
2237.07	74.57378
2237.32	74.642426
2237.57	73.65254
2237.82	74.42259
2238.07	70.1445
2238.32	74.064095
2238.57	73.1201
2238.82	74.35864
2239.07	74.33069
2239.32	72.48007
2239.57	74.2966
2239.82	74.25002
2240.07	74.29605
2240.32	74.25904
2240.57	74.16455
2240.82	73.98946
2241.07	74.169365
2241.32	73.85
2241.57	73.86109
2241.82	74.024666
2242.07	71.26729
2242.32	73.68806
2242.57	73.672
2242.82	73.74476
2243.07	73.89304
2243.32	73.85238
2243.57	73.58607
2243.82	73.28753
2244.07	73.683846
2244.32	73.66795
2244.57	73.7925
2244.82	73.63375
2245.07	73.61508
2245.32	73.42318
2245.57	73.4651
2245.82	73.61116
2246.07	73.405754
2246.32	73.53899
2246.57	73.46015
2246.82	73.41095
2247.07	73.244484
2247.32	68.01391
2247.57	73.23091
2247.82	72.774345
2248.07	73.1836
2248.32	73.02874
2248.57	73.27878
2248.82	73.197586
2249.07	73.18033
2249.32	72.42433
2249.57	73.05281
2249.82	73.108475
2250.07	73.09913
2250.32	73.01105
2250.57	72.94985
2250.82	70.82994
2251.07	72.76794
2251.32	72.89523
2251.57	72.78722
2251.82	70.83845
2252.07	72.69678
2252.32	72.726456
2252.57	71.62856
2252.82	72.775185
2253.07	72.38964
2253.32	72.496605
2253.57	71.56391
2253.82	64.29511
2254.07	71.890015
2254.32	72.3383
2254.57	72.11142
2254.82	72.35253
2255.07	72.22259
2255.32	69.54217
2255.57	72.3939
2255.82	72.2501
2256.07	72.33173
2256.32	70.13764
2256.57	71.92404
2256.82	72.03849
2257.07	71.460556
2257.32	72.22923
2257.57	71.17673
2257.82	72.05916
2258.07	72.13297
2258.32	72.11644
2258.57	72.06237
2258.82	71.98911
2259.07	72.00639
2259.32	71.86071
2259.57	71.70926
2259.82	71.75948
2260.07	71.85348
2260.32	71.82671
2260.57	71.843445
2260.82	69.65916
2261.07	71.681145
2261.32	71.31847
2261.57	71.48673
2261.82	71.40496
2262.07	66.74892
2262.32	71.218445
2262.57	68.77241
2262.82	71.34452
2263.07	71.37215
2263.32	71.48515
2263.57	71.44463
2263.82	71.34988
2264.07	71.40169
2264.32	69.74641
2264.57	71.257675
2264.82	71.301254
2265.07	68.33257
2265.32	70.75996
2265.57	70.72473
2265.82	71.18328
2266.07	70.98937
2266.32	71.063324
2266.57	70.16731
2266.82	71.07594
2267.07	71.07314
2267.32	70.95649
2267.57	70.72466
2267.82	70.949196
2268.07	70.92932
2268.32	70.86785
2268.57	70.91691
2268.82	70.845985
2269.07	70.083405
2269.32	70.70719
2269.57	70.61353
2269.82	70.687195
2270.07	70.55327
2270.32	70.59019
2270.57	70.49198
2270.82	66.251175
2271.07	70.00806
2271.32	70.27439
2271.57	70.093834
2271.82	70.33577
2272.07	70.46823
2272.32	70.40346
2272.57	70.36767
2272.82	70.22796
2273.07	70.25271
2273.32	70.28841
2273.57	70.16897
2273.82	70.12733
2274.07	67.14336
2274.32	69.99064
2274.57	69.86101
2274.82	69.84485
2275.07	69.49527
2275.32	69.983475
2275.57	69.57164
2275.82	69.867355
2276.07	69.329994
2276.32	69.861916
2276.57	69.933556
2276.82	69.90334
2277.07	69.84923
2277.32	69.8755
2277.57	69.539536
2277.82	69.73279
2278.07	69.42399
2278.32	69.42966
2278.57	69.488266
2278.82	69.53922
2279.07	69.495766
2279.32	68.78579
2279.57	67.89684
2279.82	69.3112
2280.07	69.36827
2280.32	68.71286
2280.57	67.32406
2280.82	56.175842
2281.07	67.55156
2281.32	68.10403
2281.57	69.16759
2281.82	69.197296
2282.07	67.00085
2282.32	69.185265
2282.57	69.077415
2282.82	69.08616
2283.07	69.031586
2283.32	67.83809
2283.57	69.193924
2283.82	69.17481
2284.07	68.55026
2284.32	68.945755
2284.57	67.947266
2284.82	69.00369
2285.07	69.01892
2285.32	68.98087
2285.57	68.75246
2285.82	67.41183
2286.07	68.6981
2286.32	68.0237
2286.57	68.805244
2286.82	68.61574
2287.07	68.68431
2287.32	68.22142
2287.57	68.57301
2287.82	68.65352
2288.07	68.58067
2288.32	68.40652
2288.57	68.639
2288.82	67.54176
2289.07	68.31615
2289.32	68.51487
2289.57	68.51333
2289.82	68.482544
2290.07	68.50333
2290.32	68.35225
2290.57	66.68958
2290.82	68.130844
2291.07	68.026054
2291.32	68.171165
2291.57	67.854
2291.82	68.23782
2292.07	68.18277
2292.32	68.181625
2292.57	68.02309
2292.82	65.390335
2293.07	64.598145
2293.32	66.551506
2293.57	66.07362
2293.82	66.67115
2294.07	66.38727
2294.32	66.6454
2294.57	67.64629
2294.82	66.82053
2295.07	66.63454
2295.32	66.86442
2295.57	66.21021
2295.82	67.42522
2296.07	66.40412
2296.32	66.96725
2296.57	62.363567
2296.82	67.57864
2297.07	67.27686
2297.32	66.57962
2297.57	67.610466
2297.82	66.307594
2298.07	67.43819
2298.32	67.175156
2298.57	65.90005
2298.82	67.29605
2299.07	66.36113
2299.32	67.19468
2299.57	67.433586
2299.82	65.44419
2300.07	67.33506
2300.32	67.44397
2300.57	66.43596
2300.82	66.992874
2301.07	67.26655
2301.32	67.25836
2301.57	66.047
2301.82	67.247604
2302.07	67.166435
2302.32	65.66036
2302.57	67.105545
2302.82	67.10626
2303.07	66.84104
2303.32	65.85553
2303.57	66.859215
2303.82	66.78946
2304.07	65.98554
2304.32	66.694176
2304.57	66.30036
2304.82	66.79847
2305.07	65.89719
2305.32	66.587746
2305.57	66.77827
2305.82	66.82088
2306.07	65.90415
2306.32	66.441635
2306.57	66.55809
2306.82	66.54879
2307.07	66.53732
2307.32	65.63889
2307.57	66.505936
2307.82	66.49066
2308.07	66.53337
2308.32	65.63228
2308.57	66.283585
2308.82	66.47206
2309.07	66.310036
2309.32	65.69339
2309.57	66.11236
2309.82	66.13658
2310.07	66.34013
2310.32	66.06557
2310.57	65.42076
2310.82	66.04701
2311.07	66.06533
2311.32	66.16998
2311.57	66.06615
2311.82	65.36401
2312.07	66.03332
2312.32	65.925476
2312.57	66.01109
2312.82	65.93024
2313.07	64.94847
2313.32	65.93271
2313.57	65.692566
2313.82	65.90956
2314.07	65.9006
2314.32	64.0112
2314.57	63.37348
2314.82	65.67084
2315.07	65.35789
2315.32	65.59791
2315.57	65.4599
2315.82	65.097496
2316.07	65.42087
2316.32	63.948574
2316.57	65.5259
2316.82	65.57473
2317.07	64.89693
2317.32	64.739685
2317.57	65.49026
2317.82	65.365074
2318.07	63.290077
2318.32	65.15176
2318.57	64.70322
2318.82	65.35996
2319.07	65.435165
2319.32	65.16181
2319.57	65.21927
2319.82	65.075745
2320.07	64.71832
2320.32	65.23293
2320.57	65.237434
2320.82	65.10818
2321.07	65.12991
2321.32	64.84915
2321.57	64.73123
2321.82	64.775795
2322.07	59.642063
2322.32	61.582565
2322.57	62.87037
2322.82	62.898106
2323.07	62.405144
2323.32	62.783947
2323.57	64.020294
2323.82	63.57817
2324.07	62.626835
2324.32	64.62839
2324.57	62.248085
2324.82	63.575516
2325.07	62.387115
2325.32	64.60547
2325.57	62.76411
2325.82	64.58846
2326.07	63.073463
2326.32	63.712734
2326.57	64.04076
2326.82	63.26938
2327.07	64.50025
2327.32	63.52069
2327.57	63.544964
2327.82	63.865936
2328.07	62.398315
2328.32	64.382416
2328.57	64.295135
2328.82	62.535736
2329.07	64.32506
2329.32	64.19986
2329.57	62.107773
2329.82	64.24264
2330.07	64.2149
2330.32	63.42928
2330.57	63.13286
2330.82	62.70699
2331.07	63.93477
2331.32	61.966972
2331.57	64.04166
2331.82	64.0832
2332.07	63.35564
2332.32	63.001778
2332.57	63.895027
2332.82	63.343895
2333.07	61.823196
2333.32	63.51383
2333.57	63.881493
2333.82	63.767277
2334.07	62.31277
2334.32	63.765827
2334.57	63.666153
2334.82	58.523384
2335.07	61.966255
2335.32	63.633877
2335.57	63.63713
2335.82	63.649796
2336.07	63.247646
2336.32	62.314114
2336.57	63.290436
2336.82	63.192043
2337.07	63.275673
2337.32	61.95951
2337.57	63.27896
2337.82	57.07373
2338.07	61.3347
2338.32	62.272118
2338.57	62.422806
2338.82	63.308228
2339.07	63.313923
2339.32	63.23875
2339.57	62.04177
2339.82	62.87024
2340.07	62.679756
2340.32	63.17997
2340.57	62.950096
2340.82	61.853493
2341.07	62.784683
2341.32	63.068207
2341.57	63.034653
2341.82	63.04122
2342.07	61.930496
2342.32	62.673492
2342.57	62.79476
2342.82	62.920975
2343.07	62.91613
2343.32	61.676273
2343.57	62.808647
2343.82	62.56069
2344.07	62.58634
2344.32	62.632645
2344.57	62.716187
2344.82	61.62802
2345.07	62.346535
2345.32	62.36367
2345.57	62.593346
2345.82	61.935432
2346.07	61.439026
2346.32	62.513676
2346.57	62.44542
2346.82	62.498962
2347.07	62.452293
2347.32	61.67353
2347.57	61.119915
2347.82	62.153114
2348.07	61.302773
2348.32	62.184925
2348.57	61.95571
2348.82	62.191246
2349.07	61.4019
2349.32	62.313927
2349.57	62.13879
2349.82	61.653557
2350.07	61.628384
2350.32	61.98263
2350.57	61.35967
2350.82	62.180233
2351.07	61.37554
2351.32	61.88765
2351.57	62.038937
2351.82	57.399445
2352.07	57.76402
2352.32	59.205223
2352.57	59.889023
2352.82	60.46203
2353.07	60.001526
2353.32	60.20764
2353.57	60.643143
2353.82	59.83603
2354.07	61.003265
2354.32	60.375046
2354.57	60.96003
2354.82	60.362698
2355.07	61.053413
2355.32	59.703907
2355.57	60.845238
2355.82	60.36669
2356.07	61.596992
2356.32	59.814346
2356.57	58.231133
2356.82	60.659508
2357.07	59.330734
2357.32	60.387337
2357.57	60.254803
2357.82	59.94548
2358.07	61.490814
2358.32	60.700573
2358.57	60.14748
2358.82	60.80351
2359.07	60.826164
2359.32	59.970287
2359.57	61.139748
2359.82	60.728134
2360.07	59.577713
2360.32	60.74086
2360.57	60.307686
2360.82	59.62108
2361.07	60.398212
2361.32	61.099625
2361.57	60.642143
2361.82	59.739265
2362.07	60.981426
2362.32	60.54383
2362.57	60.334404
2362.82	59.521942
2363.07	60.846077
2363.32	60.963192
2363.57	60.49588
2363.82	59.52467
2364.07	60.73544
2364.32	60.526566
2364.57	60.621353
2364.82	58.997387
2365.07	60.803947
2365.32	60.7632
2365.57	60.590725
2365.82	59.104836
2366.07	60.240627
2366.32	60.472305
2366.57	60.62432
2366.82	60.23944
2367.07	59.33781
2367.32	59.99961
2367.57	60.504116
2367.82	60.53272
2368.07	58.69008
2368.32	59.41246
2368.57	60.33162
2368.82	60.424736
2369.07	60.38875
2369.32	58.614166
2369.57	58.62457
2369.82	59.95282
2370.07	60.01069
2370.32	60.26496
2370.57	58.791405
2370.82	60.225525
2371.07	60.1662
2371.32	59.700546
2371.57	60.10846
2371.82	58.780384
2372.07	59.528236
2372.32	59.057293
2372.57	59.619694
2372.82	59.652504
2373.07	58.475464
2373.32	58.388462
2373.57	53.247955
2373.82	55.090862
2374.07	58.79257
2374.32	59.49503
2374.57	58.61269
2374.82	59.40805
2375.07	59.19735
2375.32	59.705208
2375.57	59.564835
2375.82	58.723198
2376.07	58.783306
2376.32	59.416595
2376.57	59.436058
2376.82	59.609917
2377.07	59.58914
2377.32	58.668076
2377.57	59.07489
2377.82	59.365993
2378.07	59.532692
2378.32	59.292595
2378.57	59.34371
2378.82	58.5211
2379.07	59.38282
2379.32	59.223335
2379.57	59.137543
2379.82	59.326393
2380.07	59.37348
2380.32	57.991264
2380.57	59.197598
2380.82	59.167404
2381.07	59.11094
2381.32	59.0062
2381.57	59.21116
2381.82	59.142075
2382.07	58.418953
2382.32	54.741627
2382.57	55.945087
2382.82	56.54457
2383.07	56.69944
2383.32	56.92892
2383.57	54.93942
2383.82	57.22511
2384.07	56.83651
2384.32	54.614388
2384.57	56.931797
2384.82	57.37591
2385.07	57.09494
2385.32	57.262005
2385.57	57.162815
2385.82	52.75581
2386.07	55.493015
2386.32	58.101105
2386.57	57.953903
2386.82	57.36958
2387.07	57.435974
2387.32	57.349014
2387.57	58.424934
2387.82	58.133743
2388.07	57.303043
2388.32	58.353577
2388.57	57.33805
2388.82	56.659637
2389.07	58.331585
2389.32	57.877903
2389.57	57.33909
2389.82	57.994595
2390.07	57.89132
2390.32	57.17483
2390.57	57.648663
2390.82	58.36757
2391.07	57.933838
2391.32	57.216953
2391.57	57.762825
2391.82	57.771935
2392.07	57.19084
2392.32	56.508293
2392.57	57.387028
2392.82	57.64025
2393.07	57.031727
2393.32	58.20307
2393.57	58.1893
2393.82	57.377033
2394.07	56.947918
2394.32	57.28206
2394.57	57.787937
2394.82	57.398933
2395.07	56.912003
2395.32	56.563515
2395.57	57.97012
2395.82	57.78435
2396.07	56.325623
2396.32	57.621483
2396.57	57.802032
2396.82	57.654953
2397.07	57.382088
2397.32	55.776478
2397.57	57.56117
2397.82	57.684093
2398.07	57.254753
2398.32	57.309708
2398.57	56.600677
2398.82	57.497604
2399.07	57.497543
2399.32	56.33171
2399.57	56.18446
2399.82	55.203995
